Data from Reflection_10.txt Node
Date: Tue Sep 27 15:53:18 CEST 2022
User: Ocean Optics
Spectrometer: QEP02356
Trigger mode: 4
Integration Time (sec): 2.500000E0
Scans to average: 1
Electric dark correction enabled: true
Nonlinearity correction enabled: true
Boxcar width: 0
XAxis mode: Wavelengths
Number of Pixels in Spectrum: 1044
>>>>>Begin Spectral Data<<<<<
194.596	-19.99999166
195.4	37.93098708
196.203	-55.55550156
197.007	89.47369663
197.81	16.47636419
198.613	16.57238309
199.417	16.4116312
200.22	16.66453991
201.023	18.00521241
201.826	17.08235298
202.629	15.58697872
203.432	17.25396613
204.235	15.50025234
205.038	15.36780527
205.84	16.49675872
206.643	15.59359431
207.445	16.83428073
208.248	15.89565353
209.05	15.59985114
209.853	17.04597907
210.655	17.06941608
211.457	16.71668481
212.259	16.18496529
213.061	16.40033199
213.863	17.05168123
214.665	16.69147149
215.467	16.52455936
216.269	15.38061285
217.07	16.533362
217.872	15.16409991
218.674	16.18832011
219.475	16.19701632
220.277	15.39893572
221.078	15.33891286
221.879	15.29395186
222.68	15.80393336
223.481	14.81613291
224.283	14.934459
225.084	15.2025953
225.884	14.45862322
226.685	14.54190539
227.486	14.54021081
228.287	14.40652607
229.087	14.15233489
229.888	14.17363495
230.688	14.17653149
231.489	14.17639532
232.289	14.21626144
233.089	14.06372378
233.89	14.23619
234.69	14.01103639
235.49	14.04311524
236.29	14.18534734
237.09	14.31602086
237.89	14.26230659
238.689	14.34575813
239.489	14.19115713
240.289	13.97403548
241.088	14.11831435
241.888	14.03933067
242.687	14.09158375
243.486	14.0289198
244.286	13.91854465
245.085	13.98288473
245.884	14.39482142
246.683	14.38007149
247.482	14.07355707
248.281	13.95195261
249.08	13.9205198
249.878	13.98271558
250.677	14.09958031
251.476	14.46545378
252.274	14.50072223
253.073	14.37377681
253.871	14.20474529
254.67	14.37456724
255.468	15.00575246
256.266	14.66431533
257.064	14.96741121
257.862	14.81193365
258.66	15.24579963
259.458	15.00083709
260.256	15.24954224
261.054	15.1089806
261.851	15.01053621
262.649	15.2495272
263.446	15.57348869
264.244	15.50979531
265.041	15.46753076
265.839	15.66286569
266.636	15.93795275
267.433	15.78462038
268.23	15.90548982
269.027	15.86632538
269.824	16.16897705
270.621	16.24613599
271.418	16.32128185
272.215	16.2981826
273.011	16.40029109
273.808	16.44359264
274.604	16.26599926
275.401	16.51611692
276.197	16.62468922
276.994	16.55705087
277.79	16.54888173
278.586	16.70499259
279.382	16.83290796
280.178	16.8415987
280.974	16.48658392
281.77	16.75326403
282.566	16.75998189
283.361	16.80122156
284.157	16.84509344
284.953	16.7551126
285.748	16.90371254
286.544	16.89988788
287.339	16.82880406
288.134	16.99270892
288.93	17.11559492
289.725	17.00248876
290.52	17.08181594
291.315	17.05283086
292.11	16.93271288
292.905	16.98903171
293.699	17.32515978
294.494	17.22985357
295.289	17.17120998
296.083	17.2913612
296.878	17.2314481
297.672	17.38073897
298.467	17.34539904
299.261	17.26055954
300.055	17.46842516
300.849	17.47831325
301.643	17.41007434
302.437	17.19978417
303.231	17.83921647
304.025	17.28529079
304.819	17.50495508
305.612	17.03422945
306.406	17.21436683
307.2	17.21063285
307.993	16.7024578
308.786	17.05218171
309.58	16.78823348
310.373	16.99758421
311.166	16.75405865
311.959	16.59357673
312.752	16.52646614
313.545	16.35127111
314.338	16.50194435
315.131	16.19476232
315.924	16.19484431
316.716	16.26489569
317.509	16.10683407
318.302	16.19981422
319.094	15.9296487
319.886	15.89087082
320.679	15.8336949
321.471	16.06120992
322.263	15.78277278
323.055	15.57199523
323.847	15.82065812
324.639	15.66969352
325.431	15.97334656
326.223	15.79349544
327.015	15.83080413
327.806	15.67611198
328.598	15.79450612
329.389	15.84625452
330.181	15.5998124
330.972	15.95937423
331.763	15.68727398
332.555	15.29078576
333.346	15.5666999
334.137	15.66004089
334.928	15.53003785
335.719	15.47386066
336.51	15.32023458
337.3	15.57292304
338.091	15.52676848
338.882	15.20537429
339.672	15.20150464
340.463	15.33017506
341.253	15.42051104
342.043	15.36269451
342.834	15.71062567
343.624	15.17337433
344.414	15.14885884
345.204	15.17973765
345.994	15.07821755
346.784	15.16115463
347.574	14.99472512
348.363	14.86773452
349.153	14.77340871
349.943	14.90669281
350.732	14.63982842
351.521	14.74255685
352.311	14.83913798
353.1	14.66845311
353.889	14.87261048
354.678	14.76626218
355.468	14.70407082
356.257	14.83168562
357.045	14.65894838
357.834	14.71182118
358.623	14.77183634
359.412	14.84502517
360.2	14.66969864
360.989	14.92122421
361.777	14.79077062
362.566	14.96106352
363.354	14.73674253
364.142	14.88276044
364.931	14.96566401
365.719	14.72407655
366.507	14.99121497
367.295	14.58112935
368.083	14.97802693
368.87	14.7652168
369.658	14.76206407
370.446	14.849703
371.233	14.88763553
372.021	14.96939251
372.808	15.00497314
373.596	14.82081786
374.383	15.1309405
375.17	15.23149859
375.957	15.27084281
376.745	15.47065368
377.532	15.42304101
378.318	15.64325048
379.105	15.29858922
379.892	15.43095865
380.679	15.75152333
381.465	15.57585658
382.252	15.64037779
383.038	15.72296009
383.825	15.60837265
384.611	15.74327025
385.397	15.99701219
386.184	15.92932387
386.97	15.86375713
387.756	15.9716723
388.542	15.91855278
389.328	15.79966822
390.113	15.85989117
390.899	16.13468229
391.685	15.83902256
392.47	16.0439223
393.256	16.07362247
394.041	15.84245122
394.827	16.07433601
395.612	16.148253
396.397	16.19699014
397.182	16.0538403
397.967	15.99808808
398.752	15.8986871
399.537	16.0985267
400.322	16.3044621
401.107	16.4506502
401.891	16.28419094
402.676	16.36537679
403.461	16.52713662
404.245	16.4276365
405.029	16.31861662
405.814	16.33710809
406.598	16.48106985
407.382	16.72107438
408.166	16.63916802
408.95	16.55869464
409.734	16.51394831
410.518	16.84247943
411.302	16.41400525
412.086	16.45648901
412.869	16.49491009
413.653	16.61730361
414.436	16.83987166
415.22	16.53869514
416.003	16.64335345
416.786	16.57313106
417.569	16.90845489
418.353	16.8660074
419.136	16.65075071
419.919	16.69455831
420.701	16.68439556
421.484	16.57601869
422.267	16.6382114
423.05	16.72432358
423.832	16.75182517
424.615	16.99233774
425.397	16.84527845
426.18	16.88583549
426.962	17.10837715
427.744	17.22346882
428.526	17.31642029
429.308	17.0925799
430.09	17.4306092
430.872	17.29323197
431.654	17.33860233
432.436	17.33365758
433.217	17.51524957
433.999	17.43673376
434.781	17.45482746
435.562	17.58930867
436.343	17.75142765
437.125	17.69539517
437.906	17.76422156
438.687	17.86579408
439.468	17.86808504
440.249	18.05623421
441.03	17.91294215
441.811	18.20148578
442.592	18.27515403
443.372	18.34599814
444.153	18.5786913
444.934	18.54121376
445.714	18.66448432
446.494	18.56132146
447.275	18.7188885
448.055	18.78883109
448.835	19.16760634
449.615	19.39775014
450.395	19.47406325
451.175	19.5918686
451.955	19.8057172
452.735	19.83007829
453.515	19.88088864
454.294	20.01803462
455.074	20.03217734
455.853	20.26028272
456.633	20.41744977
457.412	20.71330197
458.191	20.99095025
458.971	20.91176504
459.75	21.19690925
460.529	21.37665167
461.308	21.25409533
462.087	21.45611168
462.865	21.56858882
463.644	21.81446325
464.423	21.92455766
465.201	22.34787134
465.98	22.14367108
466.758	22.46288964
467.537	22.32521451
468.315	22.47494507
469.093	22.55357265
469.871	22.75195442
470.649	22.94368275
471.427	23.24380679
472.205	23.53591658
472.983	23.5715249
473.761	23.93079548
474.538	24.18010579
475.316	24.41526656
476.093	24.84043597
476.871	24.941718
477.648	25.46302903
478.426	25.67629884
479.203	25.98385829
479.98	26.45928968
480.757	26.74256876
481.534	27.37034442
482.311	27.76049338
483.088	28.18512384
483.864	28.78975768
484.641	28.95283894
485.418	28.94978754
486.194	29.19541937
486.971	30.06202899
487.747	31.34579604
488.523	31.92722308
489.3	32.3419953
490.076	32.69636154
490.852	33.45097765
491.628	34.83809794
492.404	35.71332753
493.179	36.13916639
493.955	36.71886827
494.731	37.67071002
495.506	38.84348171
496.282	40.07398964
497.057	40.88332172
497.833	41.54394167
498.608	42.26302139
499.383	42.70218804
500.159	43.84812837
500.934	44.93956165
501.709	45.38433176
502.483	46.09000683
503.258	47.13629341
504.033	47.35282724
504.808	48.37044521
505.582	48.3050456
506.357	48.97839421
507.131	49.28680772
507.906	49.97396908
508.68	50.43328346
509.454	50.67438361
510.228	50.96187068
511.002	51.65350022
511.776	51.91549602
512.55	52.3598836
513.324	52.63830094
514.098	52.2666736
514.872	52.41934225
515.645	52.51011435
516.419	52.65845937
517.192	52.84749791
517.966	53.03133841
518.739	52.89003595
519.512	52.56871984
520.285	52.47396107
521.058	52.4068608
521.831	52.53783135
522.604	52.52326411
523.377	52.47701017
524.15	52.58214763
524.923	52.33705591
525.695	52.51969729
526.468	51.91541794
527.24	51.60122064
528.012	51.45082767
528.785	51.63176582
529.557	51.18913824
530.329	50.42625411
531.101	50.21276087
531.873	50.48155604
532.645	50.00887633
533.417	49.82674402
534.189	49.47697252
534.96	48.93573081
535.732	48.79254598
536.503	48.84469453
537.275	48.77446167
538.046	48.47247729
538.818	48.0710557
539.589	47.90204475
540.36	47.9295335
541.131	47.55682906
541.902	47.15429034
542.673	46.1074919
543.444	45.6571114
544.214	45.23883952
544.985	45.14168336
545.756	44.68221691
546.526	44.36913293
547.297	43.83006103
548.067	43.39130344
548.837	43.25837519
549.608	42.32495872
550.378	41.88978106
551.148	41.62622909
551.918	41.08033854
552.688	40.84043045
553.457	40.69565096
554.227	39.90867699
554.997	39.64379232
555.766	38.8662141
556.536	38.46132791
557.305	38.12173832
558.075	37.90094804
558.844	37.18504856
559.613	36.70671672
560.382	36.56554664
561.151	35.81578476
561.92	35.5849115
562.689	35.15222773
563.458	34.81004158
564.227	34.40258165
564.995	34.17949564
565.764	33.69196675
566.532	33.37954916
567.301	32.77594989
568.069	32.41494186
568.837	32.28761106
569.606	31.881041
570.374	31.39956213
571.142	30.98021588
571.91	30.33108765
572.678	29.98651895
573.445	29.59098156
574.213	29.24491911
574.981	28.87561031
575.748	28.55438647
576.516	27.94924705
577.283	27.56667194
578.05	27.26095708
578.818	26.74367771
579.585	26.42897334
580.352	25.86617324
581.119	25.42324721
581.886	24.93023074
582.653	24.61047455
583.419	24.65014261
584.186	23.89865016
584.953	23.53824803
585.719	23.28422119
586.486	22.81814572
587.252	22.18007508
588.018	21.837098
588.785	21.56731923
589.551	21.3145916
590.317	20.7457929
591.083	20.34978976
591.849	20.19160072
592.615	19.73857232
593.38	19.3749149
594.146	18.96136636
594.912	18.84549193
595.677	18.46649056
596.443	18.17157264
597.208	17.89143165
597.973	17.45663331
598.738	17.12627705
599.504	16.91682974
600.269	16.58209185
601.034	16.44317733
601.798	16.16487119
602.563	15.9541979
603.328	15.72322977
604.093	15.56199848
604.857	15.39308719
605.622	15.34992971
606.386	15.02833977
607.151	15.02565509
607.915	14.8123336
608.679	14.86456179
609.443	14.62812571
610.207	14.48234556
610.971	14.04135942
611.735	14.08053475
612.499	13.98343315
613.262	13.97820531
614.026	14.03457496
614.79	13.823881
615.553	13.63140234
616.316	13.4599963
617.08	13.49010409
617.843	13.3660688
618.606	13.28621425
619.369	13.13484096
620.132	13.11723237
620.895	12.94455424
621.658	12.93625421
622.421	12.8896567
623.183	12.87777847
623.946	12.85543778
624.709	12.90451945
625.471	12.86710047
626.233	12.9595827
626.996	12.79396264
627.758	12.91777452
628.52	12.82528002
629.282	12.80580005
630.044	12.7108549
630.806	12.68869779
631.568	12.62623344
632.329	12.85023231
633.091	12.59151001
633.853	12.69695715
634.614	12.55229792
635.376	12.58768204
636.137	12.60055919
636.898	12.56698352
637.659	12.670407
638.42	12.65988453
639.181	12.59619699
639.942	12.57893674
640.703	12.53700308
641.464	12.43305936
642.225	12.52883923
642.985	12.48645393
643.746	12.42727571
644.506	12.41456561
645.267	12.34008719
646.027	12.39565702
646.787	12.31754975
647.547	12.16062922
648.307	12.1308773
649.067	12.06721092
649.827	12.16588158
650.587	12.25620067
651.347	12.39015924
652.106	12.31875449
652.866	12.27970878
653.626	12.39259029
654.385	12.34516157
655.144	12.2852384
655.904	12.2349136
656.663	12.35801345
657.422	12.61961461
658.181	12.71716298
658.94	12.59100622
659.699	12.6079019
660.458	12.5595509
661.216	12.52616487
661.975	12.68978879
662.733	12.81365151
663.492	12.86761239
664.25	12.8876463
665.009	13.11217052
665.767	13.2728652
666.525	13.10244279
667.283	13.30525652
668.041	13.26183061
668.799	13.42235863
669.557	13.59326791
670.314	13.58060725
671.072	13.66588313
671.83	13.74391738
672.587	13.82456988
673.345	13.91196039
674.102	13.95391568
674.859	13.93738177
675.616	14.10462567
676.374	14.19935529
677.131	14.39465008
677.888	14.43047072
678.644	14.56700103
679.401	14.59224075
680.158	14.7453501
680.914	14.91313221
681.671	14.91116283
682.428	15.06694251
683.184	15.02332289
683.94	15.01532363
684.696	14.8896004
685.453	15.24279387
686.209	15.21386374
686.965	15.15901526
687.721	14.92538217
688.476	15.2196007
689.232	15.16001673
689.988	15.35118849
690.743	15.26328977
691.499	15.64292467
692.254	15.80108463
693.01	15.67111364
693.765	15.88867668
694.52	15.95610055
695.275	15.99184298
696.03	16.00816136
696.785	16.07040339
697.54	16.05025662
698.295	16.12328639
699.049	16.29491766
699.804	16.26988118
700.559	16.180725
701.313	16.25026216
702.067	16.13373763
702.822	16.30865568
703.576	16.52748307
704.33	16.31291215
705.084	16.53799465
705.838	16.53529097
706.592	16.5255604
707.346	16.50545885
708.099	16.6862983
708.853	16.55090834
709.607	16.32938765
710.36	16.28753715
711.113	16.16326948
711.867	16.02060484
712.62	15.83636813
713.373	15.91536381
714.126	15.98089392
714.879	16.13337569
715.632	16.18732778
716.385	16.28224057
717.138	15.87615812
717.89	15.98556145
718.643	16.14591454
719.396	16.06582998
720.148	16.04029975
720.9	15.9043492
721.653	15.99212175
722.405	15.79846022
723.157	15.81982417
723.909	15.72483136
724.661	15.98158225
725.413	15.86092684
726.165	15.75310369
726.916	16.09101258
727.668	15.96686781
728.419	15.78232974
729.171	15.76211484
729.922	15.78730331
730.673	15.93042369
731.425	15.93865515
732.176	16.00356426
732.927	16.02504429
733.678	16.05933166
734.429	16.00415719
735.18	16.1441102
735.93	16.20555015
736.681	16.41762947
737.431	16.67198203
738.182	16.72502114
738.932	16.76173665
739.683	16.55030993
740.433	16.59868277
741.183	16.62470296
741.933	16.99832926
742.683	17.15209676
743.433	17.19256742
744.183	17.45907593
744.933	17.37518861
745.682	17.86917295
746.432	18.13313745
747.181	18.47027834
747.931	18.49599981
748.68	18.9134667
749.429	18.98945784
750.179	18.72663988
750.928	19.14309296
751.677	19.41323484
752.426	19.5388439
753.174	19.58401237
753.923	19.72401136
754.672	19.92124632
755.42	19.99596926
756.169	20.04051822
756.917	20.29995403
757.666	20.72410059
758.414	20.57338507
759.162	20.83398784
759.91	20.93263402
760.658	20.96604238
761.406	21.13066639
762.154	21.31183135
762.902	21.32213887
763.65	21.69324953
764.397	21.5939682
765.145	21.14128471
765.892	21.26644782
766.64	22.08290526
767.387	22.37974168
768.134	22.94377673
768.881	22.79753275
769.628	22.67660146
770.375	22.95300619
771.122	22.83701294
771.869	22.9561525
772.616	23.23207923
773.362	23.0911975
774.109	23.29583951
774.855	23.70820827
775.602	23.47544249
776.348	23.82479687
777.094	23.82863977
777.841	24.17164906
778.587	24.09728055
779.333	23.77520321
780.078	23.99527128
780.824	23.95361412
781.57	23.61867941
782.316	23.79095835
783.061	23.87745189
783.807	24.25307175
784.552	24.59804682
785.297	24.52715318
786.043	25.02039079
786.788	24.82170988
787.533	25.0185118
788.278	25.15219354
789.023	25.28759828
789.768	24.73076366
790.512	24.79892211
791.257	25.03990903
792.002	25.58950513
792.746	26.15604941
793.491	25.98635781
794.235	26.32637807
794.979	26.68615844
795.723	26.78091904
796.467	26.83590079
797.211	26.78797561
797.955	26.56574445
798.699	26.75777054
799.443	27.14513978
800.187	27.69092825
800.93	27.89863279
801.674	27.8057759
802.417	28.28362871
803.16	28.23707733
803.904	28.86795042
804.647	28.81926873
805.39	28.99114531
806.133	29.27844999
806.876	29.72009474
807.619	29.6399017
808.361	30.36559735
809.104	30.60353452
809.847	30.8032423
810.589	31.28363608
811.332	31.19271744
812.074	32.28640477
812.816	32.37564128
813.558	32.79123356
814.301	33.85229719
815.043	33.75797963
815.784	34.01872749
816.526	34.37694944
817.268	35.16179179
818.01	35.24749757
818.751	35.80517948
819.493	35.92436397
820.234	36.41052907
820.976	36.75123555
821.717	36.54044206
822.458	36.63876375
823.199	36.94803711
823.94	35.18608312
824.681	34.93387239
825.422	36.55778772
826.163	38.25333575
826.903	39.74652482
827.644	39.55486646
828.385	38.85945441
829.125	37.51087423
829.865	38.71331694
830.606	40.19881552
831.346	41.32907519
832.086	42.33874816
832.826	42.56423054
833.566	42.66226472
834.306	42.95955653
835.046	42.00021307
835.785	41.16874452
836.525	41.8947024
837.264	43.38204288
838.004	44.45931923
838.743	45.25119357
839.482	45.57348425
840.222	46.4784358
840.961	46.45612354
841.7	45.60708563
842.439	45.65905952
843.177	46.5504474
843.916	47.36424121
844.655	48.83103313
845.394	49.20052455
846.132	49.00387176
846.87	49.6828368
847.609	49.90555137
848.347	50.19975777
849.085	50.54753575
849.823	50.88617325
850.561	50.54680037
851.299	51.47260411
852.037	51.52111967
852.775	51.2893215
853.513	52.04472085
854.25	51.89146302
854.988	52.441842
855.725	52.32971004
856.462	52.99754556
857.2	53.37868867
857.937	53.42910802
858.674	53.75252461
859.411	53.29763708
860.148	54.54319229
860.885	55.57298357
861.622	55.41617384
862.358	56.11813218
863.095	55.96912422
863.831	56.33929048
864.568	55.95919917
865.304	56.85936641
866.04	56.30570703
866.776	56.42088698
867.513	57.11058246
868.249	57.46699185
868.984	58.07327692
869.72	58.40406781
870.456	58.28941537
871.192	58.31714478
871.927	59.1255399
872.663	58.89014027
873.398	59.45061121
874.134	58.4753047
874.869	58.57988638
875.604	58.91904834
876.339	59.99038954
877.074	60.47865429
877.809	60.52461075
878.544	61.09091362
879.278	61.33089623
880.013	61.81884419
880.748	62.23185739
881.482	61.03745029
882.217	58.52446449
882.951	56.22044752
883.685	57.22348052
884.419	59.76110947
885.153	61.87915105
885.887	63.20057138
886.621	63.57449331
887.355	63.26993188
888.089	62.64395951
888.822	63.35937395
889.556	63.9401428
890.289	64.44255744
891.023	64.59210634
891.756	64.40762709
892.489	64.45880433
893.222	65.44607754
893.955	64.85359544
894.688	64.34668787
895.421	63.67381267
896.154	61.67191722
896.887	61.87081369
897.619	64.07030909
898.352	65.81296776
899.084	66.18816494
899.817	65.69294084
900.549	66.1456897
901.281	66.64024855
902.013	67.03269698
902.745	67.15744965
903.477	67.38056382
904.209	66.61619156
904.941	64.98557036
905.673	63.35898089
906.404	65.00209111
907.136	67.15281833
907.867	68.49937654
908.599	69.36127576
909.33	68.90833702
910.061	69.91972375
910.792	69.74395869
911.523	69.59954771
912.254	69.69495052
912.985	69.50920666
913.716	68.55158964
914.446	68.38253128
915.177	68.03400106
915.908	67.23303566
916.638	65.32494851
917.368	64.1754621
918.099	64.97782655
918.829	67.24212392
919.559	68.53459862
920.289	69.62650384
921.019	69.42240635
921.748	68.95928971
922.478	69.1736891
923.208	69.56054539
923.937	69.86881574
924.667	70.18597326
925.396	70.91781817
926.126	70.17539611
926.855	70.96048504
927.584	71.05555411
928.313	70.68502743
929.042	70.5478304
929.771	71.83489181
930.5	71.14091666
931.228	70.45179125
931.957	69.82834102
932.686	70.6360764
933.414	71.2723065
934.142	71.93534352
934.871	71.48524709
935.599	71.10071348
936.327	71.41287449
937.055	70.82354238
937.783	68.58758335
938.511	67.07734924
939.239	67.0717585
939.966	67.35586755
940.694	69.25017858
941.421	70.58965982
942.149	71.65503066
942.876	70.37163752
943.603	70.79153151
944.331	70.10169322
945.058	70.11827994
945.785	69.54949562
946.512	70.04779333
947.239	70.12089005
947.965	71.32239244
948.692	70.96842857
949.418	70.33983275
950.145	70.16835631
950.871	69.98154997
951.598	68.63389297
952.324	67.75246659
953.05	69.24574142
953.776	69.51272404
954.502	70.80506566
955.228	71.76940317
955.954	74.09400973
956.68	72.95729858
957.405	73.54435324
958.131	73.42420738
958.856	74.61075632
959.582	74.17097913
960.307	74.54810649
961.032	73.81059547
961.757	74.04237432
962.482	74.91721678
963.207	75.07357043
963.932	75.21773585
964.657	74.23008619
965.381	75.61141255
966.106	73.28997647
966.831	73.95534425
967.555	73.83306502
968.279	72.02970262
969.004	71.71740732
969.728	70.38876461
970.452	71.43607836
971.176	71.67931901
971.9	73.11140793
972.624	72.35852002
973.347	73.12003786
974.071	73.89190667
974.794	74.06744141
975.518	74.0822327
976.241	74.24406889
976.965	74.00073693
977.688	75.21274815
978.411	74.58390295
979.134	73.67324713
979.857	72.43671445
980.58	70.04389735
981.303	69.40363406
982.025	70.18242524
982.748	72.83089563
983.471	72.96609722
984.193	74.27601232
984.915	74.11093446
985.638	74.48257224
986.36	75.18733023
987.082	74.66742537
987.804	75.65942652
988.526	75.81964664
989.248	56.52177836
989.969	9.0909154
990.691	211.11125763
991.413	700.00029148
