Data from Reflection_39.txt Node
Date: Thu Oct 13 20:51:55 CEST 2022
User: Ocean Optics
Spectrometer: QEP02356
Trigger mode: 4
Integration Time (sec): 1.400000E0
Scans to average: 1
Electric dark correction enabled: true
Nonlinearity correction enabled: true
Boxcar width: 0
XAxis mode: Wavelengths
Number of Pixels in Spectrum: 1044
>>>>>Begin Spectral Data<<<<<
194.596	100
195.4	42.85713096
196.203	271.4287975
197.007	100
197.81	37.77873684
198.613	39.57408632
199.417	32.34904146
200.22	39.83572235
201.023	45.60108149
201.826	37.01939658
202.629	40.09187956
203.432	38.8466165
204.235	38.10331768
205.038	41.76106085
205.84	44.53116545
206.643	44.09896229
207.445	46.02017902
208.248	53.43742465
209.05	49.00529916
209.853	52.78283067
210.655	53.75295088
211.457	48.34090245
212.259	48.15842403
213.061	54.42567374
213.863	54.60121232
214.665	56.85961179
215.467	54.59857663
216.269	57.44833594
217.07	54.98389176
217.872	53.13756632
218.674	51.01217115
219.475	54.04602995
220.277	53.02983883
221.078	45.61326973
221.879	54.60414868
222.68	50.06148052
223.481	52.85308539
224.283	53.39444448
225.084	53.26094815
225.884	50.06148043
226.685	47.35689049
227.486	54.64558682
228.287	51.82071415
229.087	51.92681671
229.888	53.02983892
230.688	51.47380376
231.489	49.32491417
232.289	50.30301715
233.089	48.877216
233.89	53.97938729
234.69	49.82050855
235.49	53.26094824
236.29	51.98224613
237.09	53.42954679
237.89	50.29733513
238.689	52.43904129
239.489	50.76350873
240.289	50.51698959
241.088	53.42281871
241.888	44.61684477
242.687	45.0432646
243.486	50.32146694
244.286	45.57594892
245.085	46.60214895
245.884	45.81803964
246.683	48.52130551
247.482	43.95039616
248.281	46.97689986
249.08	43.57191353
249.878	41.96208579
250.677	48.73294992
251.476	42.55160824
252.274	41.06535935
253.073	39.1922672
253.871	37.656361
254.67	35.48501087
255.468	37.77903383
256.266	32.51140468
257.064	32.72127532
257.862	36.96072023
258.66	32.00645635
259.458	31.07301535
260.256	33.58426889
261.054	28.73972141
261.851	34.32951824
262.649	29.60883482
263.446	31.76883958
264.244	27.18439619
265.041	30.3300791
265.839	33.41504058
266.636	28.65486601
267.433	27.23286369
268.23	30.03433837
269.027	27.6203682
269.824	28.3990762
270.621	23.83056367
271.418	26.39163645
272.215	27.80631704
273.011	25.26757911
273.808	22.8882902
274.604	25.07451783
275.401	23.22666485
276.197	22.70187732
276.994	23.06620185
277.79	24.90471456
278.586	18.70062811
279.382	21.44567867
280.178	20.9290426
280.974	20.74033574
281.77	21.18321178
282.566	19.83379162
283.361	19.20418344
284.157	17.14632769
284.953	19.14232016
285.748	18.89894978
286.544	17.3071983
287.339	17.45520007
288.134	16.01376538
288.93	14.73733481
289.725	15.82431845
290.52	16.51735507
291.315	15.42426664
292.11	14.76729442
292.905	15.25825672
293.699	15.25882861
294.494	15.76746172
295.289	14.6410465
296.083	15.86155933
296.878	14.79477275
297.672	15.48155457
298.467	15.14063734
299.261	15.31133804
300.055	15.08444491
300.849	15.01113583
301.643	15.18977718
302.437	14.82392292
303.231	15.20725757
304.025	15.12735565
304.819	15.34206524
305.612	15.30209932
306.406	14.95440901
307.2	14.42510758
307.993	14.60189051
308.786	14.69062384
309.58	14.963388
310.373	14.34801466
311.166	14.7156724
311.959	14.73078208
312.752	14.77997583
313.545	14.58025
314.338	14.65164872
315.131	14.5715126
315.924	14.46650895
316.716	14.76132255
317.509	14.30825597
318.302	14.13401068
319.094	14.12556393
319.886	14.19676696
320.679	14.05902147
321.471	13.86848318
322.263	13.96892769
323.055	13.7703961
323.847	13.65818403
324.639	13.730866
325.431	13.6859155
326.223	13.329536
327.015	13.37239269
327.806	13.35363288
328.598	13.35287853
329.389	13.0947899
330.181	13.43932728
330.972	13.04690365
331.763	13.03178647
332.555	12.96101443
333.346	12.71762427
334.137	12.64357785
334.928	12.63686463
335.719	12.56199642
336.51	12.53440639
337.3	12.38696621
338.091	12.36998138
338.882	12.45337381
339.672	12.51694461
340.463	12.23282361
341.253	12.24411767
342.043	12.09676143
342.834	12.01641864
343.624	12.00425482
344.414	11.91483525
345.204	12.07712741
345.994	11.9426608
346.784	11.89226153
347.574	11.85636595
348.363	11.52012089
349.153	11.62852802
349.943	11.65320014
350.732	11.69413382
351.521	11.60476309
352.311	11.76832218
353.1	11.64518371
353.889	11.61987558
354.678	11.4836224
355.468	11.42792835
356.257	11.47411797
357.045	11.65971327
357.834	11.52315173
358.623	11.6216239
359.412	11.45066161
360.2	11.41761061
360.989	11.49423764
361.777	11.42190161
362.566	11.42914931
363.354	11.32894409
364.142	11.40705218
364.931	11.5123731
365.719	11.43070727
366.507	11.50160839
367.295	11.2184295
368.083	11.35622544
368.87	11.52988944
369.658	11.38833762
370.446	11.56263068
371.233	11.34556082
372.021	11.34373808
372.808	11.34551874
373.596	11.41354707
374.383	11.2885354
375.17	11.12290127
375.957	11.36053822
376.745	11.2301937
377.532	11.28961509
378.318	11.28904269
379.105	11.27051139
379.892	11.29240335
380.679	11.28847006
381.465	11.23332126
382.252	11.21888372
383.038	11.23822005
383.825	11.10949999
384.611	11.10317194
385.397	11.09623161
386.184	10.9691666
386.97	10.86724594
387.756	11.04509936
388.542	10.97832086
389.328	10.94644787
390.113	10.79673038
390.899	10.80741738
391.685	10.82679257
392.47	10.84567272
393.256	10.77500596
394.041	10.65483125
394.827	10.60279907
395.612	10.5067203
396.397	10.49403406
397.182	10.48681793
397.967	10.40411774
398.752	10.44796797
399.537	10.38109398
400.322	10.30344226
401.107	10.20277325
401.891	10.18234038
402.676	10.0373272
403.461	10.13426183
404.245	9.98512157
405.029	9.89451432
405.814	9.90719651
406.598	9.95552945
407.382	9.81975075
408.166	9.84194453
408.95	9.79988479
409.734	9.70680618
410.518	9.76426177
411.302	9.62557815
412.086	9.71320105
412.869	9.59830537
413.653	9.55348444
414.436	9.52142254
415.22	9.50877965
416.003	9.38112929
416.786	9.40248002
417.569	9.41566803
418.353	9.39479021
419.136	9.41315115
419.919	9.30686941
420.701	9.30115253
421.484	9.26227712
422.267	9.17561953
423.05	9.21243657
423.832	9.11686781
424.615	9.19659728
425.397	9.09098508
426.18	9.09917088
426.962	9.14652723
427.744	9.10866215
428.526	9.03514826
429.308	9.14145547
430.09	9.04786322
430.872	9.00464855
431.654	9.08714375
432.436	8.96532372
433.217	9.0749649
433.999	8.90650136
434.781	9.0329112
435.562	8.93704124
436.343	8.9955114
437.125	9.06456741
437.906	9.00899118
438.687	8.99499142
439.468	9.00203683
440.249	9.010594
441.03	8.95932655
441.811	9.00896549
442.592	8.9285934
443.372	9.0085762
444.153	9.00894312
444.934	9.02379055
445.714	8.96833939
446.494	9.05569448
447.275	9.03615754
448.055	9.07062836
448.835	9.09161624
449.615	9.1544446
450.395	9.09063018
451.175	9.17575919
451.955	9.08170281
452.735	9.11339967
453.515	9.18215218
454.294	9.12470207
455.074	9.21604633
455.853	9.26473783
456.633	9.34552051
457.412	9.24857824
458.191	9.3462585
458.971	9.33237117
459.75	9.39846576
460.529	9.35867274
461.308	9.34409871
462.087	9.40745485
462.865	9.48953106
463.644	9.51765735
464.423	9.35007129
465.201	9.41623357
465.98	9.51515449
466.758	9.57884589
467.537	9.58033659
468.315	9.63284371
469.093	9.56760717
469.871	9.57516803
470.649	9.62419238
471.427	9.70231036
472.205	9.76560627
472.983	9.81904609
473.761	9.85180146
474.538	9.91379505
475.316	9.87793993
476.093	9.88918873
476.871	10.06077951
477.648	10.1181241
478.426	10.29145865
479.203	10.29333515
479.98	10.3398435
480.757	10.51335782
481.534	10.52742112
482.311	10.67335649
483.088	10.67489711
483.864	10.83015946
484.641	10.91812082
485.418	11.09779308
486.194	11.14281742
486.971	11.32319478
487.747	11.56486671
488.523	11.5974326
489.3	11.86915129
490.076	12.02096233
490.852	12.19936887
491.628	12.40560358
492.404	12.60348283
493.179	12.78755961
493.955	12.83328971
494.731	12.96951162
495.506	13.31555656
496.282	13.5050757
497.057	13.6907254
497.833	13.88613884
498.608	14.15430373
499.383	14.42805163
500.159	14.45498077
500.934	14.68865192
501.709	14.95596049
502.483	15.06152984
503.258	15.18847883
504.033	15.39169281
504.808	15.4612347
505.582	15.54275669
506.357	15.7876822
507.131	15.88959972
507.906	16.03335454
508.68	16.06224853
509.454	16.1504953
510.228	16.32925733
511.002	16.37805061
511.776	16.56708185
512.55	16.7019002
513.324	16.60425204
514.098	16.70205581
514.872	16.84078929
515.645	17.04930383
516.419	17.08924952
517.192	17.29663852
517.966	17.40726872
518.739	17.46426035
519.512	17.5821699
520.285	17.7335697
521.058	17.72865727
521.831	17.98259675
522.604	18.17806955
523.377	18.31612079
524.15	18.50320696
524.923	18.64858985
525.695	18.90450003
526.468	19.13180623
527.24	19.34684521
528.012	19.68702363
528.785	19.78829858
529.557	20.13808767
530.329	20.4666013
531.101	20.8592813
531.873	21.13725477
532.645	21.50880332
533.417	21.93036711
534.189	22.31669386
534.96	22.714733
535.732	23.07533713
536.503	23.58649994
537.275	24.03726848
538.046	24.55603341
538.818	25.23241661
539.589	25.71332955
540.36	26.4133254
541.131	26.89506826
541.902	27.74040438
542.673	28.30463961
543.444	28.91969695
544.214	29.66547616
544.985	30.38230417
545.756	31.22195522
546.526	32.13001465
547.297	32.98098823
548.067	33.86343876
548.837	34.72196071
549.608	35.60677181
550.378	36.50669782
551.148	37.52348314
551.918	38.44221508
552.688	39.25329214
553.457	40.57692492
554.227	41.52318311
554.997	42.39615013
555.766	43.35203472
556.536	44.62862049
557.305	45.49332052
558.075	46.64694724
558.844	47.66526234
559.613	48.76963072
560.382	49.91398275
561.151	50.73738447
561.92	52.02028325
562.689	53.24523953
563.458	54.20527628
564.227	55.21601517
564.995	56.3804185
565.764	57.38730363
566.532	58.20566033
567.301	59.34589338
568.069	60.11973719
568.837	61.29099721
569.606	62.33282685
570.374	63.27262531
571.142	63.83268985
571.91	64.64899857
572.678	65.62998293
573.445	66.43677548
574.213	67.15378862
574.981	67.81600959
575.748	68.65271044
576.516	69.37100385
577.283	69.96431585
578.05	70.91728646
578.818	71.57259994
579.585	72.1718535
580.352	72.54635487
581.119	73.1179957
581.886	73.83263376
582.653	74.33313017
583.419	74.6364256
584.186	75.19645505
584.953	75.6407834
585.719	76.0837911
586.486	76.30229826
587.252	76.68398446
588.018	77.01563516
588.785	77.55234036
589.551	78.04541669
590.317	78.56291138
591.083	78.70602615
591.849	78.5064706
592.615	79.04817199
593.38	79.16622021
594.146	79.4739437
594.912	79.82796405
595.677	79.830965
596.443	79.88847692
597.208	80.18693231
597.973	80.49979647
598.738	80.56144604
599.504	80.73335683
600.269	80.73307337
601.034	80.79066541
601.798	80.97603605
602.563	81.23867287
603.328	81.59430462
604.093	81.39682341
604.857	81.54632943
605.622	81.65912824
606.386	81.91648156
607.151	81.96112539
607.915	81.90827415
608.679	82.0535901
609.443	82.09905557
610.207	82.32330254
610.971	82.16935337
611.735	82.05656762
612.499	82.28156949
613.262	82.47703001
614.026	82.34891706
614.79	82.31308857
615.553	82.62728563
616.316	82.71847999
617.08	82.55018432
617.843	82.43538296
618.606	82.4486916
619.369	82.75780533
620.132	82.58785029
620.895	82.47814931
621.658	82.59131762
622.421	82.76076921
623.183	82.58286812
623.946	82.65077597
624.709	82.67045509
625.471	82.80375219
626.233	82.66609302
626.996	82.69301443
627.758	82.83045465
628.52	82.73130389
629.282	82.87925329
630.044	82.71347312
630.806	82.74272646
631.568	82.81469453
632.329	83.10363916
633.091	82.94898138
633.853	83.17800779
634.614	82.95783576
635.376	83.04838059
636.137	83.01794807
636.898	82.94714588
637.659	82.94017496
638.42	82.8796119
639.181	83.14023759
639.942	83.12544633
640.703	83.05102442
641.464	83.22552142
642.225	83.27242445
642.985	83.03417591
643.746	82.98455736
644.506	83.02806686
645.267	83.13118159
646.027	83.28534098
646.787	83.3254818
647.547	83.25827196
648.307	83.36644435
649.067	83.36426283
649.827	83.1576154
650.587	83.25768584
651.347	83.13388448
652.106	83.09640201
652.866	83.14831574
653.626	83.5324484
654.385	83.32325835
655.144	83.49553798
655.904	83.35706429
656.663	83.52292036
657.422	83.23375393
658.181	83.25722213
658.94	83.64144404
659.699	83.48512523
660.458	83.80494355
661.216	83.54827213
661.975	83.82385033
662.733	83.43217858
663.492	83.50687736
664.25	83.75332263
665.009	83.59873346
665.767	83.52813884
666.525	83.61333874
667.283	83.84044081
668.041	83.43934859
668.799	83.84277096
669.557	83.55884298
670.314	83.57448486
671.072	83.58237784
671.83	83.58951465
672.587	83.54809249
673.345	83.588897
674.102	83.5586818
674.859	83.38652834
675.616	83.43322195
676.374	83.301021
677.131	83.29503364
677.888	83.50698204
678.644	83.54675404
679.401	83.44102737
680.158	83.29256749
680.914	83.51622547
681.671	83.40303778
682.428	83.75352924
683.184	83.74360785
683.94	83.63204086
684.696	83.50141896
685.453	83.32054148
686.209	83.30384017
686.965	83.47565136
687.721	83.24846984
688.476	83.34656267
689.232	83.64872194
689.988	83.60951762
690.743	83.55967888
691.499	83.46846223
692.254	83.58064836
693.01	83.73369693
693.765	83.36393944
694.52	83.41012764
695.275	83.4316637
696.03	83.6567227
696.785	83.72956291
697.54	83.52634675
698.295	83.55553163
699.049	83.82906942
699.804	83.76085627
700.559	83.63761622
701.313	83.77192182
702.067	83.6925484
702.822	83.90282316
703.576	84.10428371
704.33	83.66796815
705.084	83.59887707
705.838	83.8735309
706.592	83.76444256
707.346	83.39790949
708.099	83.69400033
708.853	83.99927485
709.607	83.90637678
710.36	83.97918469
711.113	83.94481272
711.867	84.24354498
712.62	84.01659981
713.373	84.23800164
714.126	83.55963
714.879	83.58727636
715.632	83.55156863
716.385	83.43340531
717.138	83.67343139
717.89	83.90472345
718.643	83.76313539
719.396	83.76352071
720.148	83.95922934
720.9	83.76082807
721.653	83.73137362
722.405	83.95733194
723.157	83.59508477
723.909	84.16379009
724.661	83.80698682
725.413	83.85555689
726.165	84.20167174
726.916	83.9570081
727.668	84.04181144
728.419	83.87331137
729.171	84.13589016
729.922	83.92291341
730.673	84.10727926
731.425	84.21112285
732.176	84.17617434
732.927	84.16350396
733.678	83.96008747
734.429	83.8231117
735.18	83.94521611
735.93	83.83332005
736.681	83.95366347
737.431	84.02205272
738.182	84.13813329
738.932	84.04269013
739.683	84.45973182
740.433	84.27978757
741.183	84.1993548
741.933	84.15864323
742.683	83.94582606
743.433	84.21309729
744.183	84.14400173
744.933	84.05686175
745.682	83.70758023
746.432	83.75651818
747.181	84.39491489
747.931	84.23276947
748.68	84.12033733
749.429	84.32290144
750.179	84.31125351
750.928	84.28853553
751.677	84.20572242
752.426	83.82192228
753.174	84.02743712
753.923	84.03860203
754.672	84.19096436
755.42	84.28711854
756.169	84.19631021
756.917	84.36378278
757.666	83.71104309
758.414	84.24215101
759.162	84.31531833
759.91	84.65771061
760.658	84.33748635
761.406	84.32970718
762.154	84.43948293
762.902	84.70326727
763.65	84.54827775
764.397	85.17907861
765.145	85.86673719
765.892	84.49712696
766.64	83.50481755
767.387	83.34745816
768.134	83.52307046
768.881	84.02361214
769.628	83.57903889
770.375	83.71428111
771.122	83.47505424
771.869	83.54762489
772.616	83.99507701
773.362	84.26695882
774.109	83.64203832
774.855	84.34481443
775.602	84.29847683
776.348	84.47840202
777.094	84.44038583
777.841	84.65218035
778.587	84.35842494
779.333	84.1632314
780.078	83.79389721
780.824	84.42620411
781.57	84.69572054
782.316	84.22558337
783.061	83.93673908
783.807	85.13310811
784.552	84.49610352
785.297	83.75559418
786.043	84.55321481
786.788	83.98644542
787.533	84.39796827
788.278	84.20277956
789.023	84.84440715
789.768	84.66271418
790.512	84.2398245
791.257	83.5420292
792.002	84.08117418
792.746	84.36257572
793.491	83.96029259
794.235	83.25356384
794.979	83.89782532
795.723	82.99922807
796.467	84.35600489
797.211	83.96702948
797.955	84.06595924
798.699	84.86197134
799.443	83.9408004
800.187	84.44152939
800.93	83.40702821
801.674	84.18356177
802.417	84.09462226
803.16	82.6792943
803.904	83.69747473
804.647	84.25820202
805.39	84.74688283
806.133	83.02600159
806.876	84.15625193
807.619	84.08331882
808.361	84.03438138
809.104	83.65055741
809.847	83.51179942
810.589	84.11014771
811.332	83.83879501
812.074	85.0142365
812.816	84.73772351
813.558	83.66734898
814.301	83.88705512
815.043	82.92221688
815.784	84.09697583
816.526	84.44984931
817.268	84.66129661
818.01	83.99909816
818.751	83.93362486
819.493	84.87361497
820.234	84.50976689
820.976	85.52583334
821.717	85.39321439
822.458	85.30769569
823.199	86.94503945
823.94	87.21588931
824.681	84.34583319
825.422	83.0168012
826.163	82.28209746
826.903	82.25038193
827.644	84.2625593
828.385	85.50580093
829.125	84.76354049
829.865	83.35562211
830.606	82.34348612
831.346	82.4762736
832.086	83.24540924
832.826	83.8724116
833.566	84.193918
834.306	86.01106388
835.046	86.25580526
835.785	85.68873172
836.525	83.02068462
837.264	83.3888575
838.004	82.20369927
838.743	83.31464739
839.482	82.26589684
840.222	84.70741237
840.961	85.15498262
841.7	84.11158765
842.439	83.61821465
843.177	81.47199594
843.916	80.9529596
844.655	82.50834915
845.394	82.13610687
846.132	84.57650354
846.87	83.23579003
847.609	82.82702799
848.347	83.15574138
849.085	82.86136303
849.823	81.4286377
850.561	84.03626942
851.299	82.45010886
852.037	83.19793521
852.775	82.89986011
853.513	82.35626451
854.25	83.98870173
854.988	81.60723621
855.725	83.31474511
856.462	83.64476494
857.2	80.62040868
857.937	83.16707344
858.674	82.31840557
859.411	82.07930151
860.148	81.2802843
860.885	83.84556438
861.622	80.26105335
862.358	83.15910293
863.095	82.83262612
863.831	85.1730844
864.568	84.84434828
865.304	82.6809075
866.04	82.68300204
866.776	83.37949585
867.513	83.21755476
868.249	81.78055458
868.984	82.98705603
869.72	83.4829183
870.456	83.7814157
871.192	83.89420658
871.927	83.46959766
872.663	84.10655318
873.398	83.62355626
874.134	83.28881011
874.869	84.93770883
875.604	83.20724291
876.339	84.12959458
877.074	84.018573
877.809	84.24502934
878.544	84.9694495
879.278	84.29981318
880.013	84.91230305
880.748	85.337432
881.482	86.46328166
882.217	86.77104861
882.951	85.41667475
883.685	83.68227835
884.419	82.19070637
885.153	82.13607827
885.887	82.95985992
886.621	82.29884807
887.355	82.69314599
888.089	81.4734715
888.822	83.63056277
889.556	82.62801343
890.289	83.39635827
891.023	83.26310173
891.756	83.97353691
892.489	83.7737964
893.222	82.84926371
893.955	84.52871498
894.688	84.61545003
895.421	84.98611097
896.154	84.32052891
896.887	83.01210697
897.619	81.77007355
898.352	82.14874304
899.084	82.68620016
899.817	82.7790134
900.549	83.06610773
901.281	82.80650787
902.013	83.72449311
902.745	82.75077505
903.477	82.92552094
904.209	85.38734173
904.941	86.1205959
905.673	84.82104029
906.404	82.30672463
907.136	81.70635825
907.867	81.49699119
908.599	82.53226831
909.33	83.12597775
910.061	83.63000076
910.792	82.65932789
911.523	81.44479151
912.254	82.61789689
912.985	84.07219767
913.716	83.97379013
914.446	83.53958384
915.177	85.30751063
915.908	85.69828768
916.638	85.01500264
917.368	83.86963401
918.099	82.40601765
918.829	81.97072394
919.559	82.40067684
920.289	82.22062697
921.019	82.27470359
921.748	82.9985235
922.478	82.07945181
923.208	83.21643898
923.937	82.61405959
924.667	83.64476068
925.396	82.81469177
926.126	82.88394138
926.855	82.23891977
927.584	83.54935769
928.313	82.55152208
929.042	84.14150455
929.771	83.60020868
930.5	84.54456591
931.228	84.22761327
931.957	82.68513169
932.686	83.48768554
933.414	83.63413947
934.142	84.74973937
934.871	84.27148402
935.599	83.6183748
936.327	82.27973178
937.055	83.50093511
937.783	84.07085545
938.511	84.80209544
939.239	82.75181786
939.966	82.69572827
940.694	82.75057692
941.421	81.93755504
942.149	82.46504464
942.876	83.18455039
943.603	83.83207353
944.331	84.37273624
945.058	84.82623763
945.785	83.19839
946.512	82.75243717
947.239	83.92277362
947.965	83.13038286
948.692	83.29505984
949.418	83.25139657
950.145	83.72647681
950.871	83.34146267
951.598	83.92643823
952.324	82.73931695
953.05	82.1966249
953.776	82.00715926
954.502	82.7245474
955.228	82.86833104
955.954	82.99087545
956.68	81.31499927
957.405	82.97455859
958.131	82.7965537
958.856	83.46003009
959.582	82.77704484
960.307	83.55297943
961.032	83.05523676
961.757	82.81467705
962.482	83.25380393
963.207	83.77627351
963.932	83.07958923
964.657	82.75157695
965.381	82.23413103
966.106	83.98336964
966.831	82.76544641
967.555	83.96433981
968.279	83.51703225
969.004	83.92234925
969.728	83.29267538
970.452	82.95601229
971.176	83.22492749
971.9	82.94349974
972.624	83.73794463
973.347	83.18602276
974.071	83.02759558
974.794	83.03920079
975.518	83.0171761
976.241	83.5321771
976.965	83.73352022
977.688	83.76459725
978.411	83.93896034
979.134	84.65753667
979.857	84.64508786
980.58	84.28757226
981.303	82.46710132
982.025	81.7099271
982.748	81.97284426
983.471	82.1771235
984.193	82.26341856
984.915	82.61185787
985.638	83.17302919
986.36	82.86027965
987.082	82.69416969
987.804	83.9899037
988.526	83.82747413
989.248	100
989.969	76.47060947
990.691	126.66670183
991.413	1699.99811237
