Data from Reflection_14.txt Node
Date: Thu Oct 13 17:29:50 CEST 2022
User: Ocean Optics
Spectrometer: QEP02356
Trigger mode: 4
Integration Time (sec): 1.900000E0
Scans to average: 1
Electric dark correction enabled: true
Nonlinearity correction enabled: true
Boxcar width: 0
XAxis mode: Wavelengths
Number of Pixels in Spectrum: 1044
>>>>>Begin Spectral Data<<<<<
194.596	134.78264615
195.4	54.02291349
196.203	-2.564099
197.007	-4.34782247
197.81	43.94629251
198.613	37.54551101
199.417	38.41798589
200.22	33.19408603
201.023	37.47500337
201.826	38.37058773
202.629	37.54363658
203.432	34.45382699
204.235	40.04400157
205.038	42.20247741
205.84	37.93681991
206.643	35.68466134
207.445	41.79140375
208.248	38.0002671
209.05	41.92610494
209.853	41.13097708
210.655	39.20697516
211.457	42.70004207
212.259	39.36385566
213.061	41.98149346
213.863	42.35519999
214.665	46.39971347
215.467	42.88580874
216.269	43.22004619
217.07	44.98852645
217.872	43.15336006
218.674	43.58844505
219.475	44.32552928
220.277	40.92323266
221.078	42.3400941
221.879	35.87762969
222.68	36.78234125
223.481	40.98164681
224.283	36.11094119
225.084	39.3210726
225.884	35.60007106
226.685	45.7335876
227.486	41.55798451
228.287	41.20896401
229.087	38.36702402
229.888	38.92307388
230.688	42.07204436
231.489	40.38509923
232.289	43.94509517
233.089	39.6823139
233.89	41.9261055
234.69	38.62264678
235.49	37.37845925
236.29	41.6637844
237.09	43.13568163
237.89	40.37690557
238.689	35.38112996
239.489	40.88410135
240.289	39.61639112
241.088	39.51898636
241.888	37.21455817
242.687	36.48119274
243.486	37.5363276
244.286	33.37429996
245.085	33.52314257
245.884	35.05686137
246.683	39.58125721
247.482	37.37418062
248.281	34.97145234
249.08	33.99321548
249.878	33.21790732
250.677	31.96610571
251.476	32.26890448
252.274	33.37542723
253.073	26.68031059
253.871	26.91223097
254.67	28.61512003
255.468	26.87498444
256.266	26.52714899
257.064	26.93104278
257.862	30.85291664
258.66	25.89994221
259.458	25.41242157
260.256	25.2891422
261.054	27.6439726
261.851	23.85591503
262.649	24.27194347
263.446	24.92780197
264.244	21.16424979
265.041	23.57075353
265.839	22.78935154
266.636	22.17219732
267.433	22.69525413
268.23	21.57739686
269.027	19.79959131
269.824	18.83627207
270.621	18.15415855
271.418	19.60284769
272.215	17.50225096
273.011	18.55405519
273.808	16.42405063
274.604	16.03352157
275.401	18.07548792
276.197	16.29784488
276.994	16.27047557
277.79	16.83179152
278.586	16.25922846
279.382	17.11304499
280.178	13.32876585
280.974	12.95595436
281.77	12.47329848
282.566	12.2596475
283.361	12.12624473
284.157	10.73954181
284.953	10.38465251
285.748	10.54372737
286.544	10.52923713
287.339	10.10806242
288.134	9.7177442
288.93	9.81160847
289.725	8.11117529
290.52	8.31952042
291.315	8.16168218
292.11	8.16880137
292.905	7.46850864
293.699	7.83473334
294.494	7.30032175
295.289	7.46443522
296.083	7.06201308
296.878	6.99055257
297.672	7.13741765
298.467	6.61377776
299.261	6.95266217
300.055	6.75239223
300.849	6.57841169
301.643	6.71233757
302.437	6.78340895
303.231	6.57807707
304.025	6.42515623
304.819	6.70720595
305.612	6.95890388
306.406	6.55762793
307.2	6.83488235
307.993	6.33766543
308.786	6.56571803
309.58	6.60415165
310.373	6.67096829
311.166	6.42349137
311.959	6.47709531
312.752	6.38558588
313.545	6.58625301
314.338	6.59293548
315.131	6.22717019
315.924	6.47426222
316.716	6.4856934
317.509	6.11089189
318.302	6.34561627
319.094	6.19401171
319.886	6.06222043
320.679	6.08790005
321.471	6.21246712
322.263	6.32093689
323.055	6.11934611
323.847	6.09230936
324.639	6.248256
325.431	5.99425205
326.223	6.17446101
327.015	6.06754177
327.806	6.2173085
328.598	6.02613594
329.389	6.01305204
330.181	6.07633502
330.972	5.96656458
331.763	5.97664816
332.555	6.16874403
333.346	5.92030528
334.137	5.96556781
334.928	5.94473671
335.719	6.09686291
336.51	5.95080235
337.3	6.00944022
338.091	6.10809573
338.882	5.98468757
339.672	5.8285231
340.463	5.91912846
341.253	5.98582875
342.043	6.11047312
342.834	6.09225849
343.624	5.98881784
344.414	6.05625195
345.204	6.07183662
345.994	6.09844131
346.784	6.12921741
347.574	6.08664349
348.363	6.28997957
349.153	6.26150149
349.943	6.27442897
350.732	6.36565104
351.521	6.46068047
352.311	6.42585872
353.1	6.56546208
353.889	6.66664234
354.678	6.70148019
355.468	6.72139873
356.257	6.87572522
357.045	6.82303568
357.834	6.91554338
358.623	7.13659764
359.412	7.21038944
360.2	7.25665609
360.989	7.46115949
361.777	7.48657136
362.566	7.58254573
363.354	7.75805789
364.142	7.87659145
364.931	8.04564108
365.719	8.18069198
366.507	8.30948004
367.295	8.32330699
368.083	8.52159728
368.87	8.62246946
369.658	8.83921784
370.446	9.00067027
371.233	9.21533291
372.021	9.48220152
372.808	9.61792268
373.596	9.73269773
374.383	9.98546398
375.17	10.12749841
375.957	10.48877479
376.745	10.71497132
377.532	10.93449166
378.318	11.25411279
379.105	11.52501767
379.892	11.81118294
380.679	12.20148745
381.465	12.36048563
382.252	12.86473242
383.038	13.22654931
383.825	13.66221173
384.611	14.05085673
385.397	14.60309357
386.184	15.03775
386.97	15.66810215
387.756	16.40603233
388.542	16.77163882
389.328	17.61974874
390.113	18.05221819
390.899	19.00751172
391.685	19.85109425
392.47	20.54647466
393.256	21.58206063
394.041	22.31412913
394.827	23.38483398
395.612	24.38004275
396.397	25.31927581
397.182	26.27114666
397.967	27.26399663
398.752	28.38573907
399.537	29.11014417
400.322	30.02523287
401.107	30.96285276
401.891	31.68324847
402.676	32.58638625
403.461	33.42773036
404.245	34.10589845
405.029	34.64807621
405.814	35.43343893
406.598	35.95261594
407.382	36.61452335
408.166	36.98538744
408.95	37.31903504
409.734	37.52865214
410.518	37.84721312
411.302	38.17355694
412.086	38.68448944
412.869	38.83874453
413.653	39.16049977
414.436	39.45404029
415.22	39.42209291
416.003	39.30977949
416.786	39.66004554
417.569	39.63238064
418.353	39.93058669
419.136	39.7771871
419.919	40.20653226
420.701	40.19953174
421.484	40.31449706
422.267	40.28936308
423.05	40.23312818
423.832	40.54841714
424.615	40.51688283
425.397	40.66041005
426.18	40.93861844
426.962	40.82501726
427.744	40.82731645
428.526	41.05112196
429.308	41.12160937
430.09	41.30552697
430.872	41.33200569
431.654	41.46199553
432.436	41.39597841
433.217	41.55768046
433.999	41.60362925
434.781	41.83787525
435.562	41.95779926
436.343	41.81705049
437.125	42.04209679
437.906	42.04843188
438.687	42.08272775
439.468	42.49656218
440.249	42.40351392
441.03	42.26392371
441.811	42.41600497
442.592	42.5092352
443.372	42.59182807
444.153	42.45192807
444.934	42.54846159
445.714	42.70812171
446.494	42.68366048
447.275	42.72003331
448.055	42.64176707
448.835	42.67372166
449.615	42.65018975
450.395	42.72454597
451.175	42.73331462
451.955	42.55642575
452.735	42.59744878
453.515	42.45209523
454.294	42.53138591
455.074	42.47611145
455.853	42.46193153
456.633	42.2239796
457.412	42.10367396
458.191	42.09483192
458.971	41.95117426
459.75	41.99110618
460.529	41.95614876
461.308	41.70681234
462.087	41.8209198
462.865	41.67922012
463.644	41.41107787
464.423	41.37878963
465.201	41.25554268
465.98	41.06762608
466.758	41.05030558
467.537	41.0915517
468.315	40.73976398
469.093	40.5567648
469.871	40.44608727
470.649	40.47200438
471.427	40.27573646
472.205	40.19584925
472.983	40.06469154
473.761	39.92798946
474.538	39.62756928
475.316	39.53490724
476.093	39.31278836
476.871	39.38357899
477.648	39.10937124
478.426	38.86291594
479.203	38.62752573
479.98	38.63961988
480.757	38.09963635
481.534	38.05080645
482.311	37.72794176
483.088	37.53507819
483.864	37.52396559
484.641	37.16176085
485.418	36.90550091
486.194	36.62519623
486.971	36.37378299
487.747	36.1930334
488.523	35.95665584
489.3	35.85296621
490.076	35.33152597
490.852	35.12727593
491.628	34.97214371
492.404	34.72547256
493.179	34.32248679
493.955	34.01628003
494.731	33.68988311
495.506	33.72704135
496.282	33.28248754
497.057	33.1222693
497.833	32.93074089
498.608	32.55383922
499.383	32.33049992
500.159	32.10343101
500.934	31.62471538
501.709	31.61160289
502.483	31.37963392
503.258	30.90361592
504.033	30.73719634
504.808	30.53521034
505.582	30.35751146
506.357	30.06276411
507.131	29.84125506
507.906	29.6200155
508.68	29.34830154
509.454	29.12488994
510.228	28.90781214
511.002	28.56044552
511.776	28.34371881
512.55	28.02542826
513.324	27.76418281
514.098	27.52398534
514.872	27.24688752
515.645	26.89934121
516.419	26.47107518
517.192	26.25132232
517.966	25.85626168
518.739	25.66557591
519.512	25.30449652
520.285	25.05715316
521.058	24.60123463
521.831	24.39935185
522.604	24.08895212
523.377	23.90458405
524.15	23.57740943
524.923	23.44370454
525.695	23.25921762
526.468	22.97675118
527.24	22.84791529
528.012	22.71518229
528.785	22.53348414
529.557	22.43689646
530.329	22.25633038
531.101	22.04428809
531.873	22.03285874
532.645	21.88470131
533.417	21.72851763
534.189	21.66315051
534.96	21.50962231
535.732	21.49135854
536.503	21.45669585
537.275	21.34827314
538.046	21.24022686
538.818	21.17034424
539.589	21.24214944
540.36	21.14010991
541.131	21.04458446
541.902	21.00022278
542.673	21.00832576
543.444	21.07492643
544.214	20.90377121
544.985	20.9801054
545.756	20.85337623
546.526	20.83543275
547.297	20.78049719
548.067	20.83372439
548.837	20.83052478
549.608	20.70737009
550.378	20.69931
551.148	20.75096347
551.918	20.60524341
552.688	20.53911961
553.457	20.53261383
554.227	20.51181779
554.997	20.29980905
555.766	20.29257155
556.536	20.0798751
557.305	19.98730873
558.075	19.94364751
558.844	19.85028608
559.613	19.70633927
560.382	19.5771901
561.151	19.45970797
561.92	19.45872447
562.689	19.2380742
563.458	19.17755411
564.227	19.11442072
564.995	19.04949731
565.764	19.018037
566.532	18.94125713
567.301	18.89268083
568.069	18.76191251
568.837	18.71132528
569.606	18.67376928
570.374	18.71289653
571.142	18.58072471
571.91	18.59078293
572.678	18.64882101
573.445	18.62251866
574.213	18.67162402
574.981	18.64044667
575.748	18.75727912
576.516	18.69746961
577.283	18.76089192
578.05	18.79495544
578.818	18.9270889
579.585	18.93432278
580.352	19.13383395
581.119	19.27189181
581.886	19.23560512
582.653	19.409525
583.419	19.56105842
584.186	19.66796517
584.953	19.91741521
585.719	19.94201298
586.486	20.0128891
587.252	20.18454819
588.018	20.47296976
588.785	20.598054
589.551	20.73517324
590.317	20.98868162
591.083	21.06173377
591.849	21.22934807
592.615	21.30097017
593.38	21.4844228
594.146	21.69909829
594.912	21.8619213
595.677	21.89330686
596.443	22.07852643
597.208	22.17931666
597.973	22.28961673
598.738	22.37312441
599.504	22.59129558
600.269	22.65639464
601.034	22.79159422
601.798	22.75160031
602.563	22.9556658
603.328	22.97379797
604.093	23.06799382
604.857	23.1674535
605.622	23.24888633
606.386	23.09730987
607.151	23.21535486
607.915	23.25751508
608.679	23.27760113
609.443	23.30983662
610.207	23.32462511
610.971	23.36048496
611.735	23.32020665
612.499	23.31562517
613.262	23.24362606
614.026	23.20952032
614.79	23.1172832
615.553	23.19729253
616.316	23.03839709
617.08	22.95466684
617.843	22.82863429
618.606	22.81336806
619.369	22.73408217
620.132	22.6160775
620.895	22.56549747
621.658	22.46247472
622.421	22.38323309
623.183	22.42976597
623.946	22.28551127
624.709	22.25284753
625.471	22.27800294
626.233	22.29168798
626.996	22.27820679
627.758	22.20295647
628.52	22.2030566
629.282	22.34467372
630.044	22.38977823
630.806	22.43208558
631.568	22.5182012
632.329	22.65497742
633.091	22.76829863
633.853	22.8377445
634.614	22.91976408
635.376	23.05775637
636.137	23.23382147
636.898	23.34242692
637.659	23.56436901
638.42	23.71300087
639.181	24.04153206
639.942	24.18136648
640.703	24.44890744
641.464	24.7057475
642.225	24.74828145
642.985	25.2025316
643.746	25.35525865
644.506	25.64361081
645.267	26.00649945
646.027	26.27477314
646.787	26.48946498
647.547	26.90247024
648.307	27.19285764
649.067	27.45716424
649.827	27.72524234
650.587	28.24532837
651.347	28.45124596
652.106	28.76248333
652.866	29.09503273
653.626	29.4519638
654.385	29.85844466
655.144	30.17995565
655.904	30.57009281
656.663	30.80010922
657.422	31.17161499
658.181	31.51890817
658.94	31.74651518
659.699	32.18938601
660.458	32.5120496
661.216	32.7777289
661.975	33.22256041
662.733	33.30210723
663.492	33.64270695
664.25	34.05193004
665.009	34.23012968
665.767	34.63035318
666.525	34.99046697
667.283	35.06129681
668.041	35.40586974
668.799	35.57492526
669.557	35.78792782
670.314	36.06360662
671.072	36.045303
671.83	36.21274437
672.587	36.61132216
673.345	36.64104637
674.102	36.80638745
674.859	36.97110654
675.616	37.17157121
676.374	37.1796494
677.131	37.36262791
677.888	37.45316287
678.644	37.48956998
679.401	37.49922507
680.158	37.551083
680.914	37.62922619
681.671	37.60210119
682.428	37.57280609
683.184	37.69547806
683.94	37.75706302
684.696	37.71158831
685.453	37.66047308
686.209	37.76306676
686.965	37.84780376
687.721	37.85745854
688.476	37.88329051
689.232	37.85624336
689.988	38.03017158
690.743	37.9567038
691.499	38.06496979
692.254	38.12417518
693.01	38.15438413
693.765	38.0374737
694.52	38.12414918
695.275	38.14619476
696.03	38.12623234
696.785	38.38308537
697.54	38.3503656
698.295	38.44012947
699.049	38.44635933
699.804	38.39491877
700.559	38.35508845
701.313	38.46568641
702.067	38.71022218
702.822	38.54046626
703.576	38.75706093
704.33	38.65829662
705.084	38.84410105
705.838	38.98204805
706.592	39.07926034
707.346	39.08767266
708.099	39.2474205
708.853	39.37065477
709.607	39.2775069
710.36	39.52626115
711.113	39.5734569
711.867	39.75381531
712.62	39.71932856
713.373	39.739864
714.126	39.90776186
714.879	40.11334584
715.632	40.1028205
716.385	40.20179448
717.138	40.64650638
717.89	40.49048306
718.643	40.48649873
719.396	40.65749139
720.148	40.84966239
720.9	40.87787183
721.653	41.01986548
722.405	41.02361404
723.157	41.03714813
723.909	41.16130938
724.661	41.37002603
725.413	41.54236049
726.165	41.50403223
726.916	41.72686827
727.668	41.82056835
728.419	41.9589992
729.171	41.93129724
729.922	42.17072065
730.673	42.31655454
731.425	42.33175483
732.176	42.436532
732.927	42.61744523
733.678	42.81088668
734.429	42.84181586
735.18	42.90620942
735.93	43.0947082
736.681	43.23139674
737.431	43.46994317
738.182	43.51703542
738.932	43.81720258
739.683	43.84556893
740.433	44.09515608
741.183	44.44503425
741.933	44.29841349
742.683	44.59294603
743.433	44.67679207
744.183	45.01988586
744.933	45.36286055
745.682	45.56503795
746.432	45.83679732
747.181	46.03829336
747.931	46.19981035
748.68	46.30564996
749.429	46.62988141
750.179	46.8194332
750.928	46.92366959
751.677	47.05952062
752.426	47.32373761
753.174	47.5089166
753.923	47.60173728
754.672	48.0033203
755.42	48.17215652
756.169	48.4256825
756.917	48.74069243
757.666	48.96160814
758.414	49.19107541
759.162	49.42430468
759.91	49.29283744
760.658	49.53480412
761.406	49.8555187
762.154	49.87808288
762.902	49.94511722
763.65	50.43527417
764.397	50.44288856
765.145	50.85959695
765.892	50.70489383
766.64	50.68657516
767.387	50.78446587
768.134	50.96785882
768.881	51.02406714
769.628	51.56047284
770.375	51.09292491
771.122	51.25286672
771.869	51.54115905
772.616	51.66931484
773.362	51.91221166
774.109	51.90031212
774.855	52.14924988
775.602	51.73428967
776.348	51.57646374
777.094	52.23413939
777.841	52.45053201
778.587	52.82372425
779.333	52.80085235
780.078	52.43358438
780.824	52.69431808
781.57	52.89548517
782.316	52.44337271
783.061	53.17809781
783.807	53.27513764
784.552	52.90162435
785.297	53.15486248
786.043	53.18738004
786.788	52.80862322
787.533	53.62112184
788.278	53.57870093
789.023	53.20583987
789.768	53.54618631
790.512	53.72440133
791.257	54.25835814
792.002	53.743018
792.746	53.30493853
793.491	53.33905098
794.235	53.4394598
794.979	53.6919676
795.723	54.21742284
796.467	54.064099
797.211	53.63193308
797.955	54.58735884
798.699	54.70047784
799.443	53.54950215
800.187	54.42759845
800.93	53.76253093
801.674	54.5762013
802.417	54.64436595
803.16	53.94895715
803.904	54.34205936
804.647	54.69733803
805.39	55.19342932
806.133	54.52662885
806.876	54.70564973
807.619	55.08523011
808.361	54.85641072
809.104	54.78970229
809.847	54.56428226
810.589	54.1797504
811.332	53.4363955
812.074	54.57772968
812.816	55.12598941
813.558	54.81275388
814.301	54.80814474
815.043	55.56162228
815.784	54.36043925
816.526	55.01667254
817.268	55.55040227
818.01	54.35891626
818.751	55.36462571
819.493	55.9987251
820.234	55.55601244
820.976	55.57888636
821.717	55.36122862
822.458	55.74925885
823.199	56.0737884
823.94	56.04256811
824.681	55.88236428
825.422	55.60714411
826.163	55.31768495
826.903	55.74415987
827.644	55.55214137
828.385	56.10142427
829.125	55.65197357
829.865	55.84495324
830.606	55.91693517
831.346	55.80703454
832.086	55.31745518
832.826	55.64531858
833.566	56.43587866
834.306	56.17922058
835.046	55.89857178
835.785	55.87693614
836.525	55.76055574
837.264	55.86160638
838.004	56.35984079
838.743	55.52322911
839.482	55.19578617
840.222	56.86637557
840.961	56.71587072
841.7	55.45201678
842.439	55.98602992
843.177	55.78899006
843.916	56.85336265
844.655	55.84094212
845.394	56.31430966
846.132	55.39626747
846.87	55.2830347
847.609	55.64425605
848.347	54.86147742
849.085	54.71286951
849.823	55.94520365
850.561	56.39263902
851.299	55.37948957
852.037	54.99023282
852.775	55.60165986
853.513	55.50266306
854.25	55.23764635
854.988	54.64271258
855.725	54.74279859
856.462	56.18970247
857.2	56.65003208
857.937	56.37665658
858.674	56.42357267
859.411	55.98619921
860.148	54.91171045
860.885	55.27468421
861.622	55.37582272
862.358	55.35232908
863.095	57.0764888
863.831	55.96459764
864.568	55.79125831
865.304	56.92760438
866.04	55.89366978
866.776	57.07151209
867.513	55.04236239
868.249	56.67055999
868.984	55.76907791
869.72	55.36609898
870.456	56.56140537
871.192	56.15263211
871.927	56.74627581
872.663	57.18156158
873.398	56.10187801
874.134	56.72555632
874.869	55.64894976
875.604	55.97875154
876.339	54.98263643
877.074	56.33858047
877.809	55.99034203
878.544	57.73987306
879.278	56.50890583
880.013	57.49151337
880.748	56.59441569
881.482	57.05829097
882.217	57.08561796
882.951	56.99449882
883.685	56.7370603
884.419	56.7476075
885.153	56.83944115
885.887	56.6263142
886.621	56.6756438
887.355	56.74225171
888.089	56.20715208
888.822	56.14631392
889.556	55.62653992
890.289	56.68324766
891.023	56.54174817
891.756	56.5845125
892.489	57.01575508
893.222	56.95566621
893.955	56.42094095
894.688	57.32815418
895.421	56.36219931
896.154	57.04452197
896.887	56.48237537
897.619	56.33860701
898.352	56.50416653
899.084	56.16672697
899.817	56.85942341
900.549	56.78055223
901.281	56.20885373
902.013	57.05523284
902.745	57.56568481
903.477	56.99143183
904.209	56.37210467
904.941	57.34407765
905.673	57.01897141
906.404	57.27152093
907.136	56.82810684
907.867	56.64775088
908.599	55.72078464
909.33	56.6117546
910.061	56.21324351
910.792	56.06630207
911.523	54.95509479
912.254	56.8776753
912.985	56.68972715
913.716	56.75281254
914.446	56.65672472
915.177	57.02338883
915.908	56.70598429
916.638	56.75090983
917.368	56.94297654
918.099	56.52694737
918.829	56.879769
919.559	56.77242836
920.289	56.60658975
921.019	56.31157546
921.748	56.19385337
922.478	56.62758789
923.208	56.35583245
923.937	56.16046725
924.667	55.34252015
925.396	56.42024474
926.126	56.19515133
926.855	56.69577467
927.584	56.74732291
928.313	56.13797176
929.042	56.81263429
929.771	56.8913687
930.5	57.24860787
931.228	57.23132533
931.957	56.97878036
932.686	57.55177209
933.414	56.64700975
934.142	56.6887048
934.871	56.65108555
935.599	56.92857034
936.327	57.49075652
937.055	56.84205975
937.783	56.6045987
938.511	56.9662074
939.239	56.91475338
939.966	57.01931571
940.694	57.25899286
941.421	57.0105637
942.149	57.06598297
942.876	57.99079882
943.603	56.86463294
944.331	56.48823625
945.058	56.83878248
945.785	56.650461
946.512	56.47563125
947.239	57.08504422
947.965	57.25522968
948.692	56.31703096
949.418	56.97531016
950.145	56.76078657
950.871	57.23241392
951.598	57.18350276
952.324	57.74520818
953.05	57.61957935
953.776	57.32371983
954.502	57.0254672
955.228	57.06152853
955.954	57.39448103
956.68	57.63906402
957.405	57.58808804
958.131	57.57177012
958.856	57.1512263
959.582	57.13351985
960.307	57.53196385
961.032	57.99939229
961.757	56.8747028
962.482	56.56602429
963.207	56.88682114
963.932	56.580244
964.657	58.00320156
965.381	56.90998575
966.106	57.65620044
966.831	57.10593488
967.555	57.4673757
968.279	57.39233252
969.004	57.31715941
969.728	57.96604518
970.452	57.46826196
971.176	57.27140638
971.9	56.9268682
972.624	56.88001478
973.347	56.81207076
974.071	57.42809607
974.794	57.52425324
975.518	57.01021992
976.241	57.7841622
976.965	57.86062872
977.688	57.59910476
978.411	57.61815377
979.134	57.82438421
979.857	57.85773425
980.58	57.50600204
981.303	57.43696278
982.025	57.61192593
982.748	57.60757564
983.471	57.53071377
984.193	57.7779396
984.915	57.6753245
985.638	57.62140198
986.36	58.0756239
987.082	57.06715141
987.804	57.41977062
988.526	56.86366565
989.248	78.76112757
989.969	51.51518012
990.691	21.95124389
991.413	260.00021654
