Data from Reflection_10.txt Node
Date: Thu Oct 13 17:27:23 CEST 2022
User: Ocean Optics
Spectrometer: QEP02356
Trigger mode: 4
Integration Time (sec): 1.900000E0
Scans to average: 1
Electric dark correction enabled: true
Nonlinearity correction enabled: true
Boxcar width: 0
XAxis mode: Wavelengths
Number of Pixels in Spectrum: 1044
>>>>>Begin Spectral Data<<<<<
194.596	56.5217195
195.4	88.5057164
196.203	33.33330326
197.007	-47.82603054
197.81	53.23800326
198.613	48.47532406
199.417	51.92567446
200.22	49.05387599
201.023	52.1296511
201.826	52.2823917
202.629	49.62789886
203.432	47.48282846
204.235	53.32027654
205.038	48.81965905
205.84	49.11375474
206.643	51.64024968
207.445	62.01029418
208.248	58.937265
209.05	54.6441971
209.853	57.67405935
210.655	59.12639791
211.457	61.91153673
212.259	61.63253047
213.061	59.02753953
213.863	62.36550583
214.665	62.21825984
215.467	59.5133053
216.269	63.15189622
217.07	65.25085684
217.872	66.19047935
218.674	65.02086772
219.475	59.95583726
220.277	59.24638581
221.078	60.38597888
221.879	57.21548011
222.68	54.09795171
223.481	57.89065348
224.283	59.4994826
225.084	56.83366488
225.884	64.55981923
226.685	64.38807911
227.486	61.14503412
228.287	60.21157218
229.087	59.7101038
229.888	60.81309533
230.688	61.75582906
231.489	57.15225012
232.289	62.30460978
233.089	58.7247121
233.89	59.59632071
234.69	59.04777127
235.49	61.12135714
236.29	53.78178383
237.09	58.32145192
237.89	58.9291942
238.689	61.33702997
239.489	65.65805272
240.289	53.04696338
241.088	57.64234572
241.888	57.39615796
242.687	57.02542037
243.486	54.60278214
244.286	54.90925042
245.085	53.08237897
245.884	50.76602467
246.683	55.59493452
247.482	52.06597196
248.281	53.41130737
249.08	53.16826322
249.878	49.68042374
250.677	49.4443064
251.476	49.91266733
252.274	48.68483171
253.073	41.36983821
253.871	38.96964134
254.67	40.63199457
255.468	39.1847921
256.266	37.13776797
257.064	40.72034756
257.862	36.53125296
258.66	38.6972776
259.458	34.30964159
260.256	33.65804896
261.054	34.0884443
261.851	36.34877168
262.649	31.86709226
263.446	32.55262913
264.244	29.88827562
265.041	29.97515157
265.839	31.47593835
266.636	29.64812227
267.433	30.21136974
268.23	29.36239436
269.027	29.17020112
269.824	25.31845847
270.621	26.5746185
271.418	23.67726836
272.215	22.38054007
273.011	23.68682235
273.808	20.51954533
274.604	20.10911466
275.401	21.20902143
276.197	19.68532597
276.994	21.46837388
277.79	20.42159514
278.586	19.72691861
279.382	18.68301656
280.178	16.95031819
280.974	17.96583275
281.77	16.13740462
282.566	15.17513267
283.361	14.80141118
284.157	12.53942568
284.953	13.31895986
285.748	12.2403773
286.544	12.22797296
287.339	11.18119943
288.134	11.37775404
288.93	10.56720391
289.725	9.58201243
290.52	9.1771741
291.315	9.274986
292.11	8.43155317
292.905	8.63070606
293.699	8.52619359
294.494	8.00259929
295.289	7.69613587
296.083	7.60247107
296.878	7.33982517
297.672	7.25160972
298.467	7.16992915
299.261	6.98993941
300.055	7.10119988
300.849	6.88531427
301.643	7.20010617
302.437	6.99607919
303.231	7.2861797
304.025	6.89392286
304.819	7.11672571
305.612	6.6455466
306.406	6.87456929
307.2	7.02593009
307.993	6.92729514
308.786	6.54973795
309.58	6.54760112
310.373	6.61797187
311.166	6.72158761
311.959	6.49879183
312.752	6.2751135
313.545	6.5438532
314.338	6.26414209
315.131	6.1895486
315.924	6.31054223
316.716	6.31685976
317.509	6.2410448
318.302	6.27128176
319.094	5.91376098
319.886	5.99460958
320.679	5.76597061
321.471	6.14074054
322.263	6.08016432
323.055	6.03426593
323.847	6.01746718
324.639	6.01560573
325.431	5.86408094
326.223	5.95606806
327.015	6.04521326
327.806	5.81885877
328.598	5.83047855
329.389	5.90501522
330.181	5.9767928
330.972	5.84643958
331.763	5.88249107
332.555	5.93446447
333.346	5.87314291
334.137	5.86481429
334.928	5.93311753
335.719	5.82981977
336.51	5.92673917
337.3	5.94103391
338.091	5.74645053
338.882	5.83204678
339.672	5.86649326
340.463	5.84847661
341.253	5.87508026
342.043	5.80155976
342.834	5.79959212
343.624	5.8764321
344.414	5.86218683
345.204	5.97407888
345.994	5.87539056
346.784	5.94818245
347.574	6.02746651
348.363	5.99580861
349.153	6.01623093
349.943	6.10021975
350.732	6.14051991
351.521	6.20222608
352.311	6.18396796
353.1	6.24313754
353.889	6.3380103
354.678	6.41662582
355.468	6.47271072
356.257	6.44414343
357.045	6.67483434
357.834	6.59618453
358.623	6.68009515
359.412	6.93312469
360.2	7.0635955
360.989	6.95230812
361.777	7.20498677
362.566	7.13140025
363.354	7.34190793
364.142	7.58133994
364.931	7.74528002
365.719	7.77862694
366.507	7.73365273
367.295	7.98833453
368.083	7.9397571
368.87	8.24623641
369.658	8.46691809
370.446	8.53910211
371.233	8.81994018
372.021	8.90856134
372.808	8.9630849
373.596	9.24775725
374.383	9.45465933
375.17	9.56725504
375.957	9.93736128
376.745	10.09777049
377.532	10.28436527
378.318	10.50587975
379.105	10.87322105
379.892	11.06252616
380.679	11.34593738
381.465	11.61436206
382.252	11.90275762
383.038	12.24165559
383.825	12.46423533
384.611	12.96057827
385.397	13.2929398
386.184	13.6358218
386.97	14.1321375
387.756	14.71750435
388.542	15.25308813
389.328	15.84527873
390.113	16.3784753
390.899	16.92174635
391.685	17.50143023
392.47	18.07693163
393.256	18.80025625
394.041	19.55731917
394.827	20.07352815
395.612	20.61757183
396.397	21.37249837
397.182	22.1700737
397.967	22.6983964
398.752	23.34335261
399.537	23.79093526
400.322	24.4260155
401.107	24.84540528
401.891	25.72591014
402.676	26.02371505
403.461	26.44231864
404.245	26.70976864
405.029	27.14143653
405.814	27.38108269
406.598	27.65677578
407.382	28.18837105
408.166	28.31987683
408.95	28.59168027
409.734	28.41137592
410.518	28.92034505
411.302	29.04762084
412.086	29.53596899
412.869	29.39305503
413.653	29.61045011
414.436	29.78355392
415.22	29.61013209
416.003	29.91764583
416.786	29.92971884
417.569	30.25791345
418.353	30.16506244
419.136	30.3045241
419.919	30.54809199
420.701	30.54399289
421.484	30.64589608
422.267	30.69145334
423.05	30.80074104
423.832	31.06413824
424.615	31.0927885
425.397	31.09445574
426.18	31.06464943
426.962	31.24684795
427.744	31.29860314
428.526	31.59702632
429.308	31.66467774
430.09	31.6823396
430.872	31.75074106
431.654	31.90880635
432.436	32.0850097
433.217	32.14143227
433.999	32.25052964
434.781	32.34680732
435.562	32.3986554
436.343	32.41357947
437.125	32.78721554
437.906	32.85210022
438.687	32.63429874
439.468	33.10795026
440.249	33.07135138
441.03	33.36874897
441.811	33.23178178
442.592	33.41198408
443.372	33.49691966
444.153	33.77767885
444.934	33.71347466
445.714	33.96769068
446.494	34.06113224
447.275	34.25206947
448.055	34.5971516
448.835	34.56285355
449.615	34.6370764
450.395	34.92739984
451.175	34.89768775
451.955	35.16727128
452.735	35.49418122
453.515	35.48822594
454.294	35.78515902
455.074	35.91274303
455.853	36.24218804
456.633	36.40560044
457.412	36.56440043
458.191	36.8850025
458.971	37.08813552
459.75	37.42032861
460.529	37.69964595
461.308	37.95051161
462.087	38.33262946
462.865	38.62186612
463.644	38.95901717
464.423	39.34424984
465.201	39.74753898
465.98	40.08661471
466.758	40.46077299
467.537	40.96568849
468.315	41.22990535
469.093	41.53659906
469.871	41.86901172
470.649	42.35175383
471.427	42.76060538
472.205	43.31575431
472.983	43.8565454
473.761	44.30909248
474.538	44.64699939
475.316	45.05266276
476.093	45.73648721
476.871	46.26950187
477.648	46.71769532
478.426	47.13106551
479.203	47.67635743
479.98	48.12345336
480.757	48.38328549
481.534	48.94619929
482.311	49.3537356
483.088	49.71002891
483.864	50.34032828
484.641	50.67486194
485.418	51.07618275
486.194	51.4750766
486.971	52.05068456
487.747	52.40235699
488.523	52.83146826
489.3	53.12358656
490.076	53.31037626
490.852	53.78797096
491.628	54.25372222
492.404	54.4462703
493.179	54.69930347
493.955	55.01706579
494.731	54.9909378
495.506	55.44130911
496.282	55.6082067
497.057	55.86799636
497.833	56.15465484
498.608	56.09274872
499.383	56.20611129
500.159	56.34103568
500.934	56.4823993
501.709	56.50948112
502.483	56.64334796
503.258	56.57570624
504.033	56.75815387
504.808	56.70740789
505.582	56.76929233
506.357	56.82714708
507.131	56.94995517
507.906	56.81005355
508.68	56.8598422
509.454	56.77564156
510.228	56.7539981
511.002	56.83823918
511.776	56.88985284
512.55	56.74210592
513.324	56.59631366
514.098	56.68198326
514.872	56.44046379
515.645	56.4879298
516.419	56.17327092
517.192	56.292894
517.966	55.95827919
518.739	56.16711732
519.512	55.95297169
520.285	55.83261063
521.058	55.59291266
521.831	55.53107797
522.604	55.17626753
523.377	55.23772783
524.15	55.08075737
524.923	54.78859601
525.695	54.66808731
526.468	54.73467
527.24	54.36916532
528.012	54.1874683
528.785	54.11678439
529.557	54.03531249
530.329	53.63017642
531.101	53.39826799
531.873	53.41836129
532.645	53.06610706
533.417	52.75268864
534.189	52.79089072
534.96	52.40412578
535.732	52.16031294
536.503	51.98912958
537.275	51.72814691
538.046	51.3698809
538.818	51.04051086
539.589	50.72705727
540.36	50.68245557
541.131	50.22965168
541.902	49.90419129
542.673	49.6107406
543.444	49.43243167
544.214	49.10268405
544.985	48.78028878
545.756	48.53773311
546.526	48.29049169
547.297	48.18248238
548.067	47.80872654
548.837	47.62977941
549.608	47.48055236
550.378	47.110534
551.148	46.87511337
551.918	46.67320025
552.688	46.26145375
553.457	46.17579727
554.227	45.97455093
554.997	45.71010304
555.766	45.40741287
556.536	44.95542686
557.305	44.65671838
558.075	44.33240677
558.844	43.85106514
559.613	43.59200396
560.382	43.15965891
561.151	42.87539798
561.92	42.35716831
562.689	42.14911608
563.458	41.69118112
564.227	41.42563761
564.995	40.91218791
565.764	40.31769391
566.532	40.24826701
567.301	39.70926293
568.069	39.30863508
568.837	39.09088649
569.606	38.74958515
570.374	38.43881257
571.142	37.89788649
571.91	37.6159457
572.678	37.09999928
573.445	36.73517878
574.213	36.46260913
574.981	36.0645939
575.748	35.78080868
576.516	35.33699169
577.283	35.02040118
578.05	34.65741362
578.818	34.30411676
579.585	33.93378631
580.352	33.53572032
581.119	33.23979423
581.886	32.78140497
582.653	32.66814685
583.419	32.11318477
584.186	31.79264307
584.953	31.47796641
585.719	31.00795784
586.486	30.73934967
587.252	30.46601484
588.018	30.03207756
588.785	29.66838372
589.551	29.34779708
590.317	29.04166693
591.083	28.66790379
591.849	28.40947069
592.615	28.00143778
593.38	27.67931839
594.146	27.38941277
594.912	26.99607625
595.677	26.73565568
596.443	26.42719324
597.208	26.08955724
597.973	25.74968524
598.738	25.40305676
599.504	25.09153438
600.269	24.8818448
601.034	24.61725999
601.798	24.22297074
602.563	24.09460072
603.328	23.7556307
604.093	23.43527442
604.857	23.44642945
605.622	23.18390665
606.386	22.91883512
607.151	22.7581937
607.915	22.48114033
608.679	22.38563896
609.443	22.20940735
610.207	22.04143998
610.971	21.82692861
611.735	21.63183873
612.499	21.59823679
613.262	21.41076013
614.026	21.31146697
614.79	21.04812299
615.553	20.97588983
616.316	20.84092424
617.08	20.76704144
617.843	20.71984148
618.606	20.5114803
619.369	20.43374527
620.132	20.33568223
620.895	20.33813716
621.658	20.24395877
622.421	20.05749079
623.183	20.14996032
623.946	20.07972313
624.709	19.94194737
625.471	19.91259094
626.233	19.86171549
626.996	19.74027488
627.758	19.71219232
628.52	19.64276475
629.282	19.69432404
630.044	19.6281361
630.806	19.59403005
631.568	19.48639135
632.329	19.49875973
633.091	19.45941851
633.853	19.37881086
634.614	19.35080511
635.376	19.34789309
636.137	19.23272987
636.898	19.25217496
637.659	19.1559059
638.42	19.10492306
639.181	19.19383227
639.942	19.04267549
640.703	18.98524984
641.464	19.02958732
642.225	18.90153489
642.985	19.01581289
643.746	18.80692545
644.506	18.77945169
645.267	18.76618073
646.027	18.81453664
646.787	18.7264204
647.547	18.7660148
648.307	18.67404209
649.067	18.62252367
649.827	18.64368898
650.587	18.67881359
651.347	18.67343547
652.106	18.67742578
652.866	18.5989953
653.626	18.70273443
654.385	18.73503115
655.144	18.67597033
655.904	18.76760846
656.663	18.78743237
657.422	18.7354178
658.181	18.76561535
658.94	18.76698873
659.699	18.80924246
660.458	18.95239907
661.216	18.90132664
661.975	19.02465631
662.733	18.98127251
663.492	19.13042913
664.25	19.14845309
665.009	19.15356832
665.767	19.23709353
666.525	19.39510779
667.283	19.39524459
668.041	19.58667838
668.799	19.61953891
669.557	19.70196791
670.314	19.83330986
671.072	19.79167087
671.83	19.87996857
672.587	20.07372253
673.345	20.19769481
674.102	20.21161044
674.859	20.30683099
675.616	20.41338147
676.374	20.44447179
677.131	20.56150252
677.888	20.76753021
678.644	20.77350352
679.401	20.93734077
680.158	21.01331778
680.914	21.05099512
681.671	21.27268317
682.428	21.35140253
683.184	21.50110875
683.94	21.61942694
684.696	21.72758635
685.453	21.81233727
686.209	21.89881107
686.965	22.11804915
687.721	22.22123379
688.476	22.44479932
689.232	22.50338792
689.988	22.65208353
690.743	22.8457223
691.499	22.95094016
692.254	23.15480375
693.01	23.19724477
693.765	23.29149711
694.52	23.32532378
695.275	23.54276202
696.03	23.85798192
696.785	23.83959758
697.54	23.96023516
698.295	24.1035983
699.049	24.27700624
699.804	24.17043653
700.559	24.32147235
701.313	24.49551796
702.067	24.63912658
702.822	24.75136882
703.576	24.81251083
704.33	24.95867525
705.084	25.01950925
705.838	25.12261908
706.592	25.21961591
707.346	25.22294807
708.099	25.38693824
708.853	25.35271279
709.607	25.30465888
710.36	25.38826005
711.113	25.39800872
711.867	25.33121279
712.62	25.27975966
713.373	25.2759685
714.126	25.19491211
714.879	25.17329535
715.632	25.093721
716.385	25.14914938
717.138	25.04678604
717.89	25.01365197
718.643	24.99557411
719.396	24.88411916
720.148	24.89649902
720.9	24.82860006
721.653	24.75528715
722.405	24.72358364
723.157	24.43464945
723.909	24.56688262
724.661	24.60103268
725.413	24.47786262
726.165	24.44163389
726.916	24.3871829
727.668	24.3568731
728.419	24.45621296
729.171	24.35231042
729.922	24.42042542
730.673	24.3888717
731.425	24.43943871
732.176	24.41705292
732.927	24.3935929
733.678	24.39428479
734.429	24.56717851
735.18	24.61224936
735.93	24.58477218
736.681	24.76771628
737.431	24.75081775
738.182	25.00594691
738.932	25.31107559
739.683	25.32239406
740.433	25.42167096
741.183	25.6176486
741.933	25.75696369
742.683	25.9253656
743.433	26.2228778
744.183	26.36093776
744.933	26.63516877
745.682	26.72332818
746.432	26.83711665
747.181	27.229146
747.931	27.47827435
748.68	27.64607295
749.429	27.85337493
750.179	28.0127223
750.928	28.1285048
751.677	28.46119002
752.426	28.741119
753.174	29.03181013
753.923	28.99978321
754.672	29.3020189
755.42	29.50011361
756.169	29.50992162
756.917	29.9865506
757.666	30.02690609
758.414	30.27729641
759.162	30.52796659
759.91	30.45031666
760.658	30.66460641
761.406	30.69552543
762.154	30.97656468
762.902	30.95735737
763.65	31.28552839
764.397	31.18071378
765.145	31.44563659
765.892	31.44418823
766.64	31.59170594
767.387	31.801264
768.134	31.73908709
768.881	31.82844853
769.628	32.03742977
770.375	31.90658271
771.122	32.02208414
771.869	31.67561928
772.616	31.969668
773.362	31.98560417
774.109	32.00903374
774.855	31.93483414
775.602	32.1474411
776.348	31.95092524
777.094	32.12577046
777.841	32.00251894
778.587	31.98065306
779.333	31.86772895
780.078	31.94959495
780.824	32.590449
781.57	32.23562489
782.316	32.00872998
783.061	32.66740513
783.807	32.01664238
784.552	32.30580035
785.297	32.28115805
786.043	32.74859088
786.788	32.67007334
787.533	32.70493043
788.278	33.14199308
789.023	32.70822455
789.768	33.11766773
790.512	33.20186113
791.257	33.43397299
792.002	33.60013202
792.746	33.74195807
793.491	34.1328633
794.235	34.09232878
794.979	34.39339706
795.723	34.58749852
796.467	35.39651192
797.211	35.47469237
797.955	36.13017094
798.699	35.60842
799.443	35.8135718
800.187	36.83523301
800.93	37.14784766
801.674	37.51119234
802.417	37.59746072
803.16	38.44590752
803.904	38.25172331
804.647	38.4070806
805.39	39.50063104
806.133	38.79704991
806.876	39.97189426
807.619	40.31095159
808.361	41.05518861
809.104	41.31330539
809.847	41.56194904
810.589	41.39343856
811.332	41.91146324
812.074	42.65066618
812.816	43.58957085
813.558	43.75316473
814.301	45.20966361
815.043	45.11168599
815.784	45.70846147
816.526	46.01685994
817.268	46.87808418
818.01	47.05405441
818.751	47.02026363
819.493	47.49340098
820.234	48.23221158
820.976	48.67762674
821.717	49.16855816
822.458	49.59450293
823.199	50.00333365
823.94	50.69764351
824.681	50.82843567
825.422	51.07628799
826.163	51.508969
826.903	52.25937227
827.644	52.57980112
828.385	53.72255427
829.125	53.95148782
829.865	54.11961588
830.606	54.56495077
831.346	54.70075058
832.086	55.40902315
832.826	55.77180773
833.566	56.87613719
834.306	57.26805553
835.046	57.74944341
835.785	58.68129958
836.525	58.69358998
837.264	59.44762144
838.004	59.70008642
838.743	59.74355501
839.482	60.4086422
840.222	60.61782059
840.961	61.7783622
841.7	62.05845641
842.439	62.45303719
843.177	63.32298722
843.916	64.00388632
844.655	63.86455347
845.394	64.88262558
846.132	64.64619369
846.87	64.89900458
847.609	66.09452384
848.347	66.00821818
849.085	67.54922864
849.823	68.21137802
850.561	68.01912562
851.299	68.69180718
852.037	67.80527375
852.775	68.80384054
853.513	69.20159003
854.25	68.9622029
854.988	69.93331255
855.725	69.08194003
856.462	70.29422562
857.2	71.60478887
857.937	73.34534926
858.674	73.34904369
859.411	73.99805996
860.148	71.6574253
860.885	72.03761948
861.622	72.77933839
862.358	74.07973183
863.095	74.23152554
863.831	75.19149941
864.568	74.70696747
865.304	74.29133375
866.04	73.716306
866.776	76.28252818
867.513	74.76112352
868.249	76.12720832
868.984	75.78629759
869.72	75.6094932
870.456	75.93465146
871.192	77.30859801
871.927	77.22017076
872.663	79.07058701
873.398	77.71312898
874.134	78.66720564
874.869	77.68345385
875.604	79.17053621
876.339	78.88495571
877.074	78.94619883
877.809	79.93250217
878.544	80.30597153
879.278	79.83526052
880.013	80.54416988
880.748	80.78085196
881.482	80.89640363
882.217	81.43430343
882.951	81.25467564
883.685	81.15789048
884.419	81.42513173
885.153	81.46011389
885.887	81.21209094
886.621	82.37114006
887.355	82.1955899
888.089	80.99856419
888.822	81.30040303
889.556	81.29407796
890.289	81.76072869
891.023	82.24065993
891.756	82.27713978
892.489	82.9008414
893.222	82.00606699
893.955	82.76959434
894.688	83.71404504
895.421	82.53627744
896.154	83.70618357
896.887	84.00434028
897.619	83.44497429
898.352	83.67283874
899.084	83.76105214
899.817	83.87238132
900.549	83.6756211
901.281	83.3423316
902.013	83.79143597
902.745	84.50208945
903.477	84.1852309
904.209	84.65884242
904.941	85.20430661
905.673	84.35872417
906.404	84.6918266
907.136	84.64973209
907.867	84.71763455
908.599	84.45392102
909.33	84.52154012
910.061	84.40595932
910.792	84.03638529
911.523	83.48559778
912.254	85.40923777
912.985	85.0616273
913.716	85.31421496
914.446	84.25997027
915.177	85.4140371
915.908	85.03572353
916.638	85.42187835
917.368	85.77875544
918.099	85.07464939
918.829	86.24197627
919.559	86.20951903
920.289	85.81190941
921.019	85.21774646
921.748	85.60660813
922.478	86.37578638
923.208	85.52451269
923.937	85.33610732
924.667	85.66846247
925.396	86.1297394
926.126	86.1986141
926.855	85.99227519
927.584	86.4765148
928.313	86.18471577
929.042	86.78409684
929.771	85.20585524
930.5	86.07112204
931.228	86.92087827
931.957	86.3863201
932.686	86.44049036
933.414	86.18739235
934.142	87.43560138
934.871	86.09704051
935.599	87.20670521
936.327	86.50812099
937.055	87.24130708
937.783	86.77151505
938.511	87.13331748
939.239	86.24416733
939.966	86.57928408
940.694	86.55913934
941.421	87.96087859
942.149	87.54030789
942.876	87.32509274
943.603	87.14538213
944.331	86.82284016
945.058	86.48628595
945.785	86.44766617
946.512	87.8885173
947.239	87.83891014
947.965	87.70466783
948.692	87.31398879
949.418	87.95945407
950.145	87.91882745
950.871	87.99462853
951.598	87.90371336
952.324	88.74307803
953.05	88.51689368
953.776	88.24126974
954.502	88.18278669
955.228	88.05174386
955.954	89.12730173
956.68	88.61315973
957.405	88.7585337
958.131	88.04186789
958.856	88.28085015
959.582	88.96061414
960.307	87.72288747
961.032	88.7283033
961.757	88.95492005
962.482	86.92560926
963.207	87.26417904
963.932	88.14250937
964.657	88.75253121
965.381	88.05735686
966.106	89.51009076
966.831	88.76729083
967.555	89.66786767
968.279	88.87958859
969.004	88.87642793
969.728	89.15047339
970.452	89.60258602
971.176	89.21275444
971.9	88.78943006
972.624	88.5013182
973.347	88.70385823
974.071	89.31677032
974.794	89.02996148
975.518	88.47586323
976.241	89.41441847
976.965	89.36100067
977.688	89.12431805
978.411	89.44492381
979.134	89.29979951
979.857	89.40167327
980.58	89.4155914
981.303	89.3160738
982.025	89.25990692
982.748	89.34860505
983.471	89.54437216
984.193	88.8831008
984.915	88.95739969
985.638	89.7005618
986.36	89.25895924
987.082	89.21735746
987.804	89.75519997
988.526	88.66786316
989.248	59.29213008
989.969	33.33335878
990.691	46.3414988
991.413	33.33332177
